%OpenBCI Raw EEG Data
%
%Sample Rate = 250.0 Hz
%First Column = SampleIndex
%Other Columns = EEG data in microvolts with optional columns at end being unscaled Aux data
0, -187500.02, -120443.58, 187500.00, -187500.02, 66063.35, -187500.02, -187500.02, -187500.02, 0
1, -187500.02, -118651.52, 187500.00, -187500.02, 67007.38, -187500.02, -187500.02, -187500.02, 0
2, -187500.02, -117726.50, 187500.00, -187500.02, 67817.34, -187500.02, -187500.02, -187500.02, 0
3, -187500.02, -118879.09, 187500.00, -187500.02, 67679.25, -187500.02, -187500.02, -187500.02, 0
4, -187500.02, -120475.23, 187500.00, -187500.02, 67164.93, -187500.02, -187500.02, -187500.02, 0
5, -187500.02, -119047.48, 187500.00, -187500.02, 67860.50, -187500.02, -187500.02, -187500.02, 0
6, -187500.02, -117710.16, 187500.00, -187500.02, 68751.57, -187500.02, -187500.02, -187500.02, 0
7, -187500.02, -118560.89, 187500.00, -187500.02, 68766.16, -187500.02, -187500.02, -187500.02, 0
8, -187500.02, -120380.10, 187500.00, -187500.02, 68199.22, -187500.02, -187500.02, -187500.02, 0
9, -187500.02, -119472.87, 187500.00, -187500.02, 68755.82, -187500.02, -187500.02, -187500.02, 0
10, -187500.02, -117775.23, 187500.00, -187500.02, 69759.99, -187500.02, -187500.02, -187500.02, 0
11, -187500.02, -118286.23, 187500.00, -187500.02, 69936.44, -187500.02, -187500.02, -187500.02, 0
12, -187500.02, -120161.84, 187500.00, -187500.02, 69334.21, -187500.02, -187500.02, -187500.02, 0
13, -187500.02, -119886.28, 187500.00, -187500.02, 69626.30, -187500.02, -187500.02, -187500.02, 0
14, -187500.02, -117941.97, 187500.00, -187500.02, 70680.77, -187500.02, -187500.02, -187500.02, 0
15, -187500.02, -118071.99, 187500.00, -187500.02, 71037.77, -187500.02, -187500.02, -187500.02, 0
16, -187500.02, -119863.21, 187500.00, -187500.02, 70529.41, -187500.02, -187500.02, -187500.02, 0
17, -187500.02, -120238.39, 187500.00, -187500.02, 70566.84, -187500.02, -187500.02, -187500.02, 0
18, -187500.02, -118191.26, 187500.00, -187500.02, 71611.97, -187500.02, -187500.02, -187500.02, 0
19, -187500.02, -117907.75, 187500.00, -187500.02, 72134.40, -187500.02, -187500.02, -187500.02, 0
20, -187500.02, -119534.09, 187500.00, -187500.02, 71746.08, -187500.02, -187500.02, -187500.02, 0
21, -187500.02, -120530.91, 187500.00, -187500.02, 71554.13, -187500.02, -187500.02, -187500.02, 0
22, -187500.02, -118517.77, 187500.00, -187500.02, 72580.00, -187500.02, -187500.02, -187500.02, 0
23, -187500.02, -117785.95, 187500.00, -187500.02, 73228.70, -187500.02, -187500.02, -187500.02, 0
24, -187500.02, -119163.92, 187500.00, -187500.02, 72964.36, -187500.02, -187500.02, -187500.02, 0
25, -187500.02, -120617.83, 187500.00, -187500.02, 72563.88, -187500.02, -187500.02, -187500.02, 0
26, -187500.02, -118900.30, 187500.00, -187500.02, 73426.62, -187500.02, -187500.02, -187500.02, 0
27, -187500.02, -117792.70, 187500.00, -187500.02, 74267.20, -187500.02, -187500.02, -187500.02, 0
28, -187500.02, -118869.55, 187500.00, -187500.02, 74202.09, -187500.02, -187500.02, -187500.02, 0
29, -187500.02, -120578.09, 187500.00, -187500.02, 73665.55, -187500.02, -187500.02, -187500.02, 0
30, -187500.02, -119294.30, 187500.00, -187500.02, 74272.43, -187500.02, -187500.02, -187500.02, 0
31, -187500.02, -117825.02, 187500.00, -187500.02, 75214.20, -187500.02, -187500.02, -187500.02, 0
32, -187500.02, -118587.76, 187500.00, -187500.02, 75301.98, -187500.02, -187500.02, -187500.02, 0
33, -187500.02, -120402.00, 187500.00, -187500.02, 74715.15, -187500.02, -187500.02, -187500.02, 0
34, -187500.02, -119680.34, 187500.00, -187500.02, 75172.55, -187500.02, -187500.02, -187500.02, 0
35, -187500.02, -117963.88, 187500.00, -187500.02, 76170.00, -187500.02, -187500.02, -187500.02, 0
36, -187500.02, -118377.31, 187500.00, -187500.02, 76409.86, -187500.02, -187500.02, -187500.02, 0
37, -187500.02, -120158.46, 187500.00, -187500.02, 75905.96, -187500.02, -187500.02, -187500.02, 0
38, -187500.02, -120043.55, 187500.00, -187500.02, 76099.26, -187500.02, -187500.02, -187500.02, 0
39, -187500.02, -118135.73, 187500.00, -187500.02, 77114.70, -187500.02, -187500.02, -187500.02, 0
40, -187500.02, -118191.69, 187500.00, -187500.02, 77561.69, -187500.02, -187500.02, -187500.02, 0
41, -187500.02, -119870.63, 187500.00, -187500.02, 77133.88, -187500.02, -187500.02, -187500.02, 0
42, -187500.02, -120343.71, 187500.00, -187500.02, 77089.15, -187500.02, -187500.02, -187500.02, 0
43, -187500.02, -118378.19, 187500.00, -187500.02, 78078.75, -187500.02, -187500.02, -187500.02, 0
44, -187500.02, -118051.61, 187500.00, -187500.02, 78640.70, -187500.02, -187500.02, -187500.02, 0
45, -187500.02, -119532.88, 187500.00, -187500.02, 78295.77, -187500.02, -187500.02, -187500.02, 0
46, -187500.02, -120535.29, 187500.00, -187500.02, 78049.41, -187500.02, -187500.02, -187500.02, 0
47, -187500.02, -118691.18, 187500.00, -187500.02, 79029.30, -187500.02, -187500.02, -187500.02, 0
48, -187500.02, -117965.15, 187500.00, -187500.02, 79739.69, -187500.02, -187500.02, -187500.02, 0
49, -187500.02, -119192.15, 187500.00, -187500.02, 79531.62, -187500.02, -187500.02, -187500.02, 0
50, -187500.02, -120598.09, 187500.00, -187500.02, 79112.77, -187500.02, -187500.02, -187500.02, 0
51, -187500.02, -119057.48, 187500.00, -187500.02, 79894.59, -187500.02, -187500.02, -187500.02, 0
52, -187500.02, -117929.50, 187500.00, -187500.02, 80730.20, -187500.02, -187500.02, -187500.02, 0
53, -187500.02, -118864.23, 187500.00, -187500.02, 80672.31, -187500.02, -187500.02, -187500.02, 0
54, -187500.02, -120516.98, 187500.00, -187500.02, 80152.52, -187500.02, -187500.02, -187500.02, 0
55, -187500.02, -119436.16, 187500.00, -187500.02, 80765.99, -187500.02, -187500.02, -187500.02, 0
56, -187500.02, -117946.35, 187500.00, -187500.02, 81695.98, -187500.02, -187500.02, -187500.02, 0
57, -187500.02, -118568.00, 187500.00, -187500.02, 81796.63, -187500.02, -187500.02, -187500.02, 0
58, -187500.02, -120332.45, 187500.00, -187500.02, 81231.27, -187500.02, -187500.02, -187500.02, 0
59, -187500.02, -119827.79, 187500.00, -187500.02, 81603.55, -187500.02, -187500.02, -187500.02, 0
60, -187500.02, -118042.60, 187500.00, -187500.02, 82616.27, -187500.02, -187500.02, -187500.02, 0
61, -187500.02, -118285.72, 187500.00, -187500.02, 82908.41, -187500.02, -187500.02, -187500.02, 0
62, -187500.02, -120042.77, 187500.00, -187500.02, 82417.00, -187500.02, -187500.02, -187500.02, 0
63, -187500.02, -120195.77, 187500.00, -187500.02, 82579.10, -187500.02, -187500.02, -187500.02, 0
64, -187500.02, -118217.05, 187500.00, -187500.02, 83646.62, -187500.02, -187500.02, -187500.02, 0
65, -187500.02, -118070.91, 187500.00, -187500.02, 84119.89, -187500.02, -187500.02, -187500.02, 0
66, -187500.02, -119699.96, 187500.00, -187500.02, 83712.60, -187500.02, -187500.02, -187500.02, 0
67, -187500.02, -120442.98, 187500.00, -187500.02, 83586.27, -187500.02, -187500.02, -187500.02, 0
68, -187500.02, -118480.96, 187500.00, -187500.02, 84598.31, -187500.02, -187500.02, -187500.02, 0
69, -187500.02, -117940.83, 187500.00, -187500.02, 85197.18, -187500.02, -187500.02, -187500.02, 0
70, -187500.02, -119344.50, 187500.00, -187500.02, 84849.03, -187500.02, -187500.02, -187500.02, 0
71, -187500.02, -120575.79, 187500.00, -187500.02, 84523.95, -187500.02, -187500.02, -187500.02, 0
72, -187500.02, -118801.33, 187500.00, -187500.02, 85464.75, -187500.02, -187500.02, -187500.02, 0
73, -187500.02, -117848.98, 187500.00, -187500.02, 86234.19, -187500.02, -187500.02, -187500.02, 0
74, -187500.02, -118979.80, 187500.00, -187500.02, 86094.87, -187500.02, -187500.02, -187500.02, 0
75, -187500.02, -120579.48, 187500.00, -187500.02, 85616.95, -187500.02, -187500.02, -187500.02, 0
76, -187500.02, -119178.07, 187500.00, -187500.02, 86353.34, -187500.02, -187500.02, -187500.02, 0
77, -187500.02, -117813.70, 187500.00, -187500.02, 87209.44, -187500.02, -187500.02, -187500.02, 0
78, -187500.02, -118635.66, 187500.00, -187500.02, 87192.09, -187500.02, -187500.02, -187500.02, 0
79, -187500.02, -120457.77, 187500.00, -187500.02, 86641.64, -187500.02, -187500.02, -187500.02, 0
80, -187500.02, -119576.15, 187500.00, -187500.02, 87217.98, -187500.02, -187500.02, -187500.02, 0
81, -187500.02, -117851.60, 187500.00, -187500.02, 88208.23, -187500.02, -187500.02, -187500.02, 0
82, -187500.02, -118341.44, 187500.00, -187500.02, 88385.90, -187500.02, -187500.02, -187500.02, 0
83, -187500.02, -120234.32, 187500.00, -187500.02, 87832.98, -187500.02, -187500.02, -187500.02, 0
84, -187500.02, -119968.78, 187500.00, -187500.02, 88112.88, -187500.02, -187500.02, -187500.02, 0
85, -187500.02, -117983.14, 187500.00, -187500.02, 89124.43, -187500.02, -187500.02, -187500.02, 0
86, -187500.02, -118109.79, 187500.00, -187500.02, 89445.11, -187500.02, -187500.02, -187500.02, 0
87, -187500.02, -119943.28, 187500.00, -187500.02, 88949.79, -187500.02, -187500.02, -187500.02, 0
88, -187500.02, -120307.57, 187500.00, -187500.02, 89007.48, -187500.02, -187500.02, -187500.02, 0
89, -187500.02, -118191.23, 187500.00, -187500.02, 90045.43, -187500.02, -187500.02, -187500.02, 0
90, -187500.02, -117912.31, 187500.00, -187500.02, 90535.18, -187500.02, -187500.02, -187500.02, 0
91, -187500.02, -119573.94, 187500.00, -187500.02, 90140.27, -187500.02, -187500.02, -187500.02, 0
92, -187500.02, -120536.59, 187500.00, -187500.02, 89937.80, -187500.02, -187500.02, -187500.02, 0
93, -187500.02, -118499.38, 187500.00, -187500.02, 90918.09, -187500.02, -187500.02, -187500.02, 0
94, -187500.02, -117789.71, 187500.00, -187500.02, 91607.02, -187500.02, -187500.02, -187500.02, 0
95, -187500.02, -119193.45, 187500.00, -187500.02, 91339.26, -187500.02, -187500.02, -187500.02, 0
96, -187500.02, -120637.61, 187500.00, -187500.02, 90935.61, -187500.02, -187500.02, -187500.02, 0
97, -187500.02, -118877.91, 187500.00, -187500.02, 91790.97, -187500.02, -187500.02, -187500.02, 0
98, -187500.02, -117741.38, 187500.00, -187500.02, 92611.63, -187500.02, -187500.02, -187500.02, 0
99, -187500.02, -118833.98, 187500.00, -187500.02, 92567.60, -187500.02, -187500.02, -187500.02, 0
100, -187500.02, -120596.69, 187500.00, -187500.02, 92092.78, -187500.02, -187500.02, -187500.02, 0
101, -187500.02, -119301.13, 187500.00, -187500.02, 92796.57, -187500.02, -187500.02, -187500.02, 0
102, -187500.02, -117760.32, 187500.00, -187500.02, 93725.04, -187500.02, -187500.02, -187500.02, 0
103, -187500.02, -118514.29, 187500.00, -187500.02, 93806.73, -187500.02, -187500.02, -187500.02, 0
104, -187500.02, -120430.14, 187500.00, -187500.02, 93296.29, -187500.02, -187500.02, -187500.02, 0
105, -187500.02, -119722.89, 187500.00, -187500.02, 93740.40, -187500.02, -187500.02, -187500.02, 0
106, -187500.02, -117860.70, 187500.00, -187500.02, 94733.71, -187500.02, -187500.02, -187500.02, 0
107, -187500.02, -118253.46, 187500.00, -187500.02, 94988.54, -187500.02, -187500.02, -187500.02, 0
108, -187500.02, -120169.81, 187500.00, -187500.02, 94470.63, -187500.02, -187500.02, -187500.02, 0
109, -187500.02, -120102.16, 187500.00, -187500.02, 94652.41, -187500.02, -187500.02, -187500.02, 0
110, -187500.02, -118035.31, 187500.00, -187500.02, 95688.13, -187500.02, -187500.02, -187500.02, 0
111, -187500.02, -118040.72, 187500.00, -187500.02, 96157.23, -187500.02, -187500.02, -187500.02, 0
112, -187500.02, -119842.63, 187500.00, -187500.02, 95726.80, -187500.02, -187500.02, -187500.02, 0
113, -187500.02, -120419.69, 187500.00, -187500.02, 95730.35, -187500.02, -187500.02, -187500.02, 0
114, -187500.02, -118314.59, 187500.00, -187500.02, 96737.84, -187500.02, -187500.02, -187500.02, 0
115, -187500.02, -117905.98, 187500.00, -187500.02, 97299.17, -187500.02, -187500.02, -187500.02, 0
116, -187500.02, -119478.95, 187500.00, -187500.02, 96994.32, -187500.02, -187500.02, -187500.02, 0
117, -187500.02, -120611.95, 187500.00, -187500.02, 96702.34, -187500.02, -187500.02, -187500.02, 0
118, -187500.02, -118673.84, 187500.00, -187500.02, 97586.69, -187500.02, -187500.02, -187500.02, 0
119, -187500.02, -117834.52, 187500.00, -187500.02, 98272.99, -187500.02, -187500.02, -187500.02, 0
120, -187500.02, -119124.18, 187500.00, -187500.02, 98085.89, -187500.02, -187500.02, -187500.02, 0
121, -187500.02, -120678.78, 187500.00, -187500.02, 97674.66, -187500.02, -187500.02, -187500.02, 0
122, -187500.02, -119080.95, 187500.00, -187500.02, 98418.93, -187500.02, -187500.02, -187500.02, 0
123, -187500.02, -117814.86, 187500.00, -187500.02, 99263.29, -187500.02, -187500.02, -187500.02, 0
124, -187500.02, -118779.87, 187500.00, -187500.02, 99258.08, -187500.02, -187500.02, -187500.02, 0
125, -187500.02, -120588.23, 187500.00, -187500.02, 98756.38, -187500.02, -187500.02, -187500.02, 0
126, -187500.02, -119490.34, 187500.00, -187500.02, 99345.92, -187500.02, -187500.02, -187500.02, 0
127, -187500.02, -117838.28, 187500.00, -187500.02, 100292.92, -187500.02, -187500.02, -187500.02, 0
128, -187500.02, -118458.34, 187500.00, -187500.02, 100472.18, -187500.02, -187500.02, -187500.02, 0
129, -187500.02, -120362.91, 187500.00, -187500.02, 99951.03, -187500.02, -187500.02, -187500.02, 0
130, -187500.02, -119878.68, 187500.00, -187500.02, 100336.89, -187500.02, -187500.02, -187500.02, 0
131, -187500.02, -117946.71, 187500.00, -187500.02, 101351.08, -187500.02, -187500.02, -187500.02, 0
132, -187500.02, -118199.98, 187500.00, -187500.02, 101639.26, -187500.02, -187500.02, -187500.02, 0
133, -187500.02, -120059.06, 187500.00, -187500.02, 101150.60, -187500.02, -187500.02, -187500.02, 0
134, -187500.02, -120216.38, 187500.00, -187500.02, 101275.13, -187500.02, -187500.02, -187500.02, 0
135, -187500.02, -118142.63, 187500.00, -187500.02, 102283.84, -187500.02, -187500.02, -187500.02, 0
136, -187500.02, -117997.34, 187500.00, -187500.02, 102764.06, -187500.02, -187500.02, -187500.02, 0
137, -187500.02, -119699.48, 187500.00, -187500.02, 102396.11, -187500.02, -187500.02, -187500.02, 0
138, -187500.02, -120473.82, 187500.00, -187500.02, 102294.61, -187500.02, -187500.02, -187500.02, 0
139, -187500.02, -118431.09, 187500.00, -187500.02, 103238.37, -187500.02, -187500.02, -187500.02, 0
140, -187500.02, -117866.16, 187500.00, -187500.02, 103817.30, -187500.02, -187500.02, -187500.02, 0
141, -187500.02, -119322.28, 187500.00, -187500.02, 103542.73, -187500.02, -187500.02, -187500.02, 0
142, -187500.02, -120614.68, 187500.00, -187500.02, 103250.17, -187500.02, -187500.02, -187500.02, 0
143, -187500.02, -118803.77, 187500.00, -187500.02, 104078.75, -187500.02, -187500.02, -187500.02, 0
144, -187500.02, -117808.42, 187500.00, -187500.02, 104804.87, -187500.02, -187500.02, -187500.02, 0
145, -187500.02, -118966.59, 187500.00, -187500.02, 104694.20, -187500.02, -187500.02, -187500.02, 0
146, -187500.02, -120604.69, 187500.00, -187500.02, 104316.23, -187500.02, -187500.02, -187500.02, 0
147, -187500.02, -119197.98, 187500.00, -187500.02, 104987.39, -187500.02, -187500.02, -187500.02, 0
148, -187500.02, -117799.23, 187500.00, -187500.02, 105809.00, -187500.02, -187500.02, -187500.02, 0
149, -187500.02, -118627.16, 187500.00, -187500.02, 105840.60, -187500.02, -187500.02, -187500.02, 0
150, -187500.02, -120467.94, 187500.00, -187500.02, 105357.36, -187500.02, -187500.02, -187500.02, 0
151, -187500.02, -119608.30, 187500.00, -187500.02, 105838.41, -187500.02, -187500.02, -187500.02, 0
152, -187500.02, -117862.22, 187500.00, -187500.02, 106769.34, -187500.02, -187500.02, -187500.02, 0
153, -187500.02, -118342.67, 187500.00, -187500.02, 106962.86, -187500.02, -187500.02, -187500.02, 0
154, -187500.02, -120219.13, 187500.00, -187500.02, 106477.56, -187500.02, -187500.02, -187500.02, 0
155, -187500.02, -119987.31, 187500.00, -187500.02, 106726.89, -187500.02, -187500.02, -187500.02, 0
156, -187500.02, -118018.46, 187500.00, -187500.02, 107697.72, -187500.02, -187500.02, -187500.02, 0
157, -187500.02, -118117.99, 187500.00, -187500.02, 108050.67, -187500.02, -187500.02, -187500.02, 0
158, -187500.02, -119899.58, 187500.00, -187500.02, 107606.21, -187500.02, -187500.02, -187500.02, 0
159, -187500.02, -120299.50, 187500.00, -187500.02, 107642.91, -187500.02, -187500.02, -187500.02, 0
160, -187500.02, -118250.63, 187500.00, -187500.02, 108649.59, -187500.02, -187500.02, -187500.02, 0
161, -187500.02, -117955.27, 187500.00, -187500.02, 109144.64, -187500.02, -187500.02, -187500.02, 0
162, -187500.02, -119532.92, 187500.00, -187500.02, 108795.48, -187500.02, -187500.02, -187500.02, 0
163, -187500.02, -120484.03, 187500.00, -187500.02, 108640.00, -187500.02, -187500.02, -187500.02, 0
164, -187500.02, -118562.57, 187500.00, -187500.02, 109504.79, -187500.02, -187500.02, -187500.02, 0
165, -187500.02, -117841.34, 187500.00, -187500.02, 110154.60, -187500.02, -187500.02, -187500.02, 0
166, -187500.02, -119150.48, 187500.00, -187500.02, 109976.91, -187500.02, -187500.02, -187500.02, 0
167, -187500.02, -120556.72, 187500.00, -187500.02, 109641.90, -187500.02, -187500.02, -187500.02, 0
168, -187500.02, -118938.48, 187500.00, -187500.02, 110400.83, -187500.02, -187500.02, -187500.02, 0
169, -187500.02, -117815.84, 187500.00, -187500.02, 111143.73, -187500.02, -187500.02, -187500.02, 0
170, -187500.02, -118817.78, 187500.00, -187500.02, 111083.52, -187500.02, -187500.02, -187500.02, 0
171, -187500.02, -120510.09, 187500.00, -187500.02, 110660.96, -187500.02, -187500.02, -187500.02, 0
172, -187500.02, -119338.84, 187500.00, -187500.02, 111273.41, -187500.02, -187500.02, -187500.02, 0
173, -187500.02, -117833.61, 187500.00, -187500.02, 112129.96, -187500.02, -187500.02, -187500.02, 0
174, -187500.02, -118504.56, 187500.00, -187500.02, 112207.88, -187500.02, -187500.02, -187500.02, 0
175, -187500.02, -120327.17, 187500.00, -187500.02, 111717.08, -187500.02, -187500.02, -187500.02, 0
176, -187500.02, -119726.31, 187500.00, -187500.02, 112102.51, -187500.02, -187500.02, -187500.02, 0
177, -187500.02, -117933.68, 187500.00, -187500.02, 113017.26, -187500.02, -187500.02, -187500.02, 0
178, -187500.02, -118245.06, 187500.00, -187500.02, 113261.98, -187500.02, -187500.02, -187500.02, 0
179, -187500.02, -120047.28, 187500.00, -187500.02, 112816.09, -187500.02, -187500.02, -187500.02, 0
180, -187500.02, -120064.49, 187500.00, -187500.02, 113008.36, -187500.02, -187500.02, -187500.02, 0
181, -187500.02, -118102.32, 187500.00, -187500.02, 113965.87, -187500.02, -187500.02, -187500.02, 0
182, -187500.02, -118038.30, 187500.00, -187500.02, 114386.05, -187500.02, -187500.02, -187500.02, 0
183, -187500.02, -119707.60, 187500.00, -187500.02, 114024.60, -187500.02, -187500.02, -187500.02, 0
184, -187500.02, -120324.84, 187500.00, -187500.02, 113999.66, -187500.02, -187500.02, -187500.02, 0
185, -187500.02, -118358.85, 187500.00, -187500.02, 114917.34, -187500.02, -187500.02, -187500.02, 0
186, -187500.02, -117892.75, 187500.00, -187500.02, 115504.94, -187500.02, -187500.02, -187500.02, 0
187, -187500.02, -119339.73, 187500.00, -187500.02, 115257.62, -187500.02, -187500.02, -187500.02, 0
188, -187500.02, -120464.70, 187500.00, -187500.02, 115053.57, -187500.02, -187500.02, -187500.02, 0
189, -187500.02, -118675.89, 187500.00, -187500.02, 115911.49, -187500.02, -187500.02, -187500.02, 0
190, -187500.02, -117804.91, 187500.00, -187500.02, 116590.85, -187500.02, -187500.02, -187500.02, 0
191, -187500.02, -118975.23, 187500.00, -187500.02, 116438.81, -187500.02, -187500.02, -187500.02, 0
192, -187500.02, -120479.97, 187500.00, -187500.02, 116074.52, -187500.02, -187500.02, -187500.02, 0
193, -187500.02, -119042.39, 187500.00, -187500.02, 116798.19, -187500.02, -187500.02, -187500.02, 0
194, -187500.02, -117783.92, 187500.00, -187500.02, 117582.87, -187500.02, -187500.02, -187500.02, 0
195, -187500.02, -118643.91, 187500.00, -187500.02, 117611.66, -187500.02, -187500.02, -187500.02, 0
196, -187500.02, -120377.57, 187500.00, -187500.02, 117158.14, -187500.02, -187500.02, -187500.02, 0
197, -187500.02, -119443.36, 187500.00, -187500.02, 117659.53, -187500.02, -187500.02, -187500.02, 0
198, -187500.02, -117842.55, 187500.00, -187500.02, 118516.88, -187500.02, -187500.02, -187500.02, 0
199, -187500.02, -118367.19, 187500.00, -187500.02, 118658.45, -187500.02, -187500.02, -187500.02, 0
200, -187500.02, -120168.77, 187500.00, -187500.02, 118193.14, -187500.02, -187500.02, -187500.02, 0
201, -187500.02, -119818.84, 187500.00, -187500.02, 118537.35, -187500.02, -187500.02, -187500.02, 0
202, -187500.02, -117981.58, 187500.00, -187500.02, 119473.91, -187500.02, -187500.02, -187500.02, 0
203, -187500.02, -118141.39, 187500.00, -187500.02, 119787.84, -187500.02, -187500.02, -187500.02, 0
204, -187500.02, -119857.67, 187500.00, -187500.02, 119376.10, -187500.02, -187500.02, -187500.02, 0
205, -187500.02, -120131.08, 187500.00, -187500.02, 119473.73, -187500.02, -187500.02, -187500.02, 0
206, -187500.02, -118215.78, 187500.00, -187500.02, 120392.30, -187500.02, -187500.02, -187500.02, 0
207, -187500.02, -117978.94, 187500.00, -187500.02, 120885.25, -187500.02, -187500.02, -187500.02, 0
208, -187500.02, -119495.39, 187500.00, -187500.02, 120597.23, -187500.02, -187500.02, -187500.02, 0
209, -187500.02, -120326.27, 187500.00, -187500.02, 120505.02, -187500.02, -187500.02, -187500.02, 0
210, -187500.02, -118518.18, 187500.00, -187500.02, 121349.54, -187500.02, -187500.02, -187500.02, 0
211, -187500.02, -117881.94, 187500.00, -187500.02, 121931.58, -187500.02, -187500.02, -187500.02, 0
212, -187500.02, -119137.16, 187500.00, -187500.02, 121732.36, -187500.02, -187500.02, -187500.02, 0
213, -187500.02, -120405.71, 187500.00, -187500.02, 121472.74, -187500.02, -187500.02, -187500.02, 0
214, -187500.02, -118872.56, 187500.00, -187500.02, 122236.45, -187500.02, -187500.02, -187500.02, 0
215, -187500.02, -117864.48, 187500.00, -187500.02, 122925.36, -187500.02, -187500.02, -187500.02, 0
216, -187500.02, -118828.20, 187500.00, -187500.02, 122878.40, -187500.02, -187500.02, -187500.02, 0
217, -187500.02, -120379.09, 187500.00, -187500.02, 122506.76, -187500.02, -187500.02, -187500.02, 0
218, -187500.02, -119262.98, 187500.00, -187500.02, 123127.09, -187500.02, -187500.02, -187500.02, 0
219, -187500.02, -117899.97, 187500.00, -187500.02, 123947.33, -187500.02, -187500.02, -187500.02, 0
220, -187500.02, -118547.70, 187500.00, -187500.02, 124044.09, -187500.02, -187500.02, -187500.02, 0
221, -187500.02, -120235.75, 187500.00, -187500.02, 123630.04, -187500.02, -187500.02, -187500.02, 0
222, -187500.02, -119632.27, 187500.00, -187500.02, 124038.88, -187500.02, -187500.02, -187500.02, 0
223, -187500.02, -117996.13, 187500.00, -187500.02, 124899.13, -187500.02, -187500.02, -187500.02, 0
224, -187500.02, -118309.92, 187500.00, -187500.02, 125118.84, -187500.02, -187500.02, -187500.02, 0
225, -187500.02, -119998.78, 187500.00, -187500.02, 124707.40, -187500.02, -187500.02, -187500.02, 0
226, -187500.02, -119953.80, 187500.00, -187500.02, 124898.95, -187500.02, -187500.02, -187500.02, 0
227, -187500.02, -118149.40, 187500.00, -187500.02, 125801.07, -187500.02, -187500.02, -187500.02, 0
228, -187500.02, -118115.91, 187500.00, -187500.02, 126171.30, -187500.02, -187500.02, -187500.02, 0
229, -187500.02, -119696.83, 187500.00, -187500.02, 125832.16, -187500.02, -187500.02, -187500.02, 0
230, -187500.02, -120215.37, 187500.00, -187500.02, 125856.14, -187500.02, -187500.02, -187500.02, 0
231, -187500.02, -118387.30, 187500.00, -187500.02, 126733.16, -187500.02, -187500.02, -187500.02, 0
232, -187500.02, -117984.73, 187500.00, -187500.02, 127237.50, -187500.02, -187500.02, -187500.02, 0
233, -187500.02, -119378.79, 187500.00, -187500.02, 126982.70, -187500.02, -187500.02, -187500.02, 0
234, -187500.02, -120361.32, 187500.00, -187500.02, 126795.30, -187500.02, -187500.02, -187500.02, 0
235, -187500.02, -118653.88, 187500.00, -187500.02, 127606.75, -187500.02, -187500.02, -187500.02, 0
236, -187500.02, -117865.59, 187500.00, -187500.02, 128224.73, -187500.02, -187500.02, -187500.02, 0
237, -187500.02, -118986.24, 187500.00, -187500.02, 128103.05, -187500.02, -187500.02, -187500.02, 0
238, -187500.02, -120345.48, 187500.00, -187500.02, 127814.18, -187500.02, -187500.02, -187500.02, 0
239, -187500.02, -118957.14, 187500.00, -187500.02, 128564.21, -187500.02, -187500.02, -187500.02, 0
240, -187500.02, -117809.76, 187500.00, -187500.02, 129306.16, -187500.02, -187500.02, -187500.02, 0
241, -187500.02, -118652.13, 187500.00, -187500.02, 129286.20, -187500.02, -187500.02, -187500.02, 0
242, -187500.02, -120260.59, 187500.00, -187500.02, 128906.13, -187500.02, -187500.02, -187500.02, 0
243, -187500.02, -119316.42, 187500.00, -187500.02, 129473.33, -187500.02, -187500.02, -187500.02, 0
244, -187500.02, -117863.41, 187500.00, -187500.02, 130291.13, -187500.02, -187500.02, -187500.02, 0
245, -187500.02, -118401.81, 187500.00, -187500.02, 130398.87, -187500.02, -187500.02, -187500.02, 0
246, -187500.02, -120099.49, 187500.00, -187500.02, 129945.86, -187500.02, -187500.02, -187500.02, 0
247, -187500.02, -119689.05, 187500.00, -187500.02, 130266.21, -187500.02, -187500.02, -187500.02, 0
248, -187500.02, -117990.12, 187500.00, -187500.02, 131135.63, -187500.02, -187500.02, -187500.02, 0
249, -187500.02, -118186.43, 187500.00, -187500.02, 131407.64, -187500.02, -187500.02, -187500.02, 0
250, -187500.02, -119844.06, 187500.00, -187500.02, 131034.28, -187500.02, -187500.02, -187500.02, 0
251, -187500.02, -119997.93, 187500.00, -187500.02, 131180.69, -187500.02, -187500.02, -187500.02, 0
252, -187500.02, -118179.39, 187500.00, -187500.02, 132062.73, -187500.02, -187500.02, -187500.02, 0
253, -187500.02, -118021.77, 187500.00, -187500.02, 132488.64, -187500.02, -187500.02, -187500.02, 0
254, -187500.02, -119536.66, 187500.00, -187500.02, 132173.38, -187500.02, -187500.02, -187500.02, 0
255, -187500.02, -120221.54, 187500.00, -187500.02, 132104.80, -187500.02, -187500.02, -187500.02, 0
0, -187500.02, -118429.41, 187500.00, -187500.02, 132957.02, -187500.02, -187500.02, -187500.02, 0
1, -187500.02, -117902.90, 187500.00, -187500.02, 133511.08, -187500.02, -187500.02, -187500.02, 0
2, -187500.02, -119203.28, 187500.00, -187500.02, 133294.48, -187500.02, -187500.02, -187500.02, 0
3, -187500.02, -120335.98, 187500.00, -187500.02, 133062.80, -187500.02, -187500.02, -187500.02, 0
4, -187500.02, -118741.88, 187500.00, -187500.02, 133853.38, -187500.02, -187500.02, -187500.02, 0
5, -187500.02, -117840.12, 187500.00, -187500.02, 134515.78, -187500.02, -187500.02, -187500.02, 0
6, -187500.02, -118868.95, 187500.00, -187500.02, 134445.66, -187500.02, -187500.02, -187500.02, 0
7, -187500.02, -120331.23, 187500.00, -187500.02, 134107.42, -187500.02, -187500.02, -187500.02, 0
8, -187500.02, -119094.59, 187500.00, -187500.02, 134747.31, -187500.02, -187500.02, -187500.02, 0
9, -187500.02, -117838.55, 187500.00, -187500.02, 135523.16, -187500.02, -187500.02, -187500.02, 0
10, -187500.02, -118574.44, 187500.00, -187500.02, 135575.31, -187500.02, -187500.02, -187500.02, 0
11, -187500.02, -120219.84, 187500.00, -187500.02, 135160.41, -187500.02, -187500.02, -187500.02, 0
12, -187500.02, -119456.52, 187500.00, -187500.02, 135616.41, -187500.02, -187500.02, -187500.02, 0
13, -187500.02, -117907.48, 187500.00, -187500.02, 136454.22, -187500.02, -187500.02, -187500.02, 0
14, -187500.02, -118321.30, 187500.00, -187500.02, 136667.08, -187500.02, -187500.02, -187500.02, 0
15, -187500.02, -120012.88, 187500.00, -187500.02, 136248.55, -187500.02, -187500.02, -187500.02, 0
16, -187500.02, -119804.66, 187500.00, -187500.02, 136542.58, -187500.02, -187500.02, -187500.02, 0
17, -187500.02, -118056.08, 187500.00, -187500.02, 137441.50, -187500.02, -187500.02, -187500.02, 0
18, -187500.02, -118124.59, 187500.00, -187500.02, 137747.84, -187500.02, -187500.02, -187500.02, 0
19, -187500.02, -119733.20, 187500.00, -187500.02, 137349.05, -187500.02, -187500.02, -187500.02, 0
20, -187500.02, -120071.71, 187500.00, -187500.02, 137419.73, -187500.02, -187500.02, -187500.02, 0
21, -187500.02, -118253.95, 187500.00, -187500.02, 138312.83, -187500.02, -187500.02, -187500.02, 0
22, -187500.02, -117971.03, 187500.00, -187500.02, 138766.52, -187500.02, -187500.02, -187500.02, 0
23, -187500.02, -119415.13, 187500.00, -187500.02, 138481.38, -187500.02, -187500.02, -187500.02, 0
24, -187500.02, -120262.80, 187500.00, -187500.02, 138367.44, -187500.02, -187500.02, -187500.02, 0
25, -187500.02, -118535.30, 187500.00, -187500.02, 139197.20, -187500.02, -187500.02, -187500.02, 0
26, -187500.02, -117879.27, 187500.00, -187500.02, 139772.58, -187500.02, -187500.02, -187500.02, 0
27, -187500.02, -119087.01, 187500.00, -187500.02, 139584.25, -187500.02, -187500.02, -187500.02, 0
28, -187500.02, -120343.51, 187500.00, -187500.02, 139315.88, -187500.02, -187500.02, -187500.02, 0
29, -187500.02, -118860.09, 187500.00, -187500.02, 140090.06, -187500.02, -187500.02, -187500.02, 0
30, -187500.02, -117843.47, 187500.00, -187500.02, 140760.69, -187500.02, -187500.02, -187500.02, 0
31, -187500.02, -118773.74, 187500.00, -187500.02, 140719.16, -187500.02, -187500.02, -187500.02, 0
32, -187500.02, -120312.35, 187500.00, -187500.02, 140338.31, -187500.02, -187500.02, -187500.02, 0
33, -187500.02, -119228.65, 187500.00, -187500.02, 140950.16, -187500.02, -187500.02, -187500.02, 0
34, -187500.02, -117872.70, 187500.00, -187500.02, 141765.67, -187500.02, -187500.02, -187500.02, 0
35, -187500.02, -118498.77, 187500.00, -187500.02, 141834.39, -187500.02, -187500.02, -187500.02, 0
36, -187500.02, -120172.74, 187500.00, -187500.02, 141386.11, -187500.02, -187500.02, -187500.02, 0
37, -187500.02, -119580.35, 187500.00, -187500.02, 141795.53, -187500.02, -187500.02, -187500.02, 0
38, -187500.02, -117949.39, 187500.00, -187500.02, 142669.95, -187500.02, -187500.02, -187500.02, 0
39, -187500.02, -118256.75, 187500.00, -187500.02, 142894.23, -187500.02, -187500.02, -187500.02, 0
40, -187500.02, -119942.67, 187500.00, -187500.02, 142486.91, -187500.02, -187500.02, -187500.02, 0
41, -187500.02, -119901.01, 187500.00, -187500.02, 142703.13, -187500.02, -187500.02, -187500.02, 0
42, -187500.02, -118103.41, 187500.00, -187500.02, 143578.28, -187500.02, -187500.02, -187500.02, 0
43, -187500.02, -118067.25, 187500.00, -187500.02, 143946.44, -187500.02, -187500.02, -187500.02, 0
44, -187500.02, -119652.41, 187500.00, -187500.02, 143607.89, -187500.02, -187500.02, -187500.02, 0
45, -187500.02, -120158.88, 187500.00, -187500.02, 143624.80, -187500.02, -187500.02, -187500.02, 0
46, -187500.02, -118324.52, 187500.00, -187500.02, 144507.78, -187500.02, -187500.02, -187500.02, 0
47, -187500.02, -117929.16, 187500.00, -187500.02, 144981.36, -187500.02, -187500.02, -187500.02, 0
48, -187500.02, -119334.69, 187500.00, -187500.02, 144723.47, -187500.02, -187500.02, -187500.02, 0
49, -187500.02, -120322.95, 187500.00, -187500.02, 144575.66, -187500.02, -187500.02, -187500.02, 0
50, -187500.02, -118602.30, 187500.00, -187500.02, 145408.58, -187500.02, -187500.02, -187500.02, 0
51, -187500.02, -117837.99, 187500.00, -187500.02, 146055.25, -187500.02, -187500.02, -187500.02, 0
52, -187500.02, -119015.08, 187500.00, -187500.02, 145911.58, -187500.02, -187500.02, -187500.02, 0
53, -187500.02, -120404.26, 187500.00, -187500.02, 145607.22, -187500.02, -187500.02, -187500.02, 0
54, -187500.02, -118939.46, 187500.00, -187500.02, 146368.58, -187500.02, -187500.02, -187500.02, 0
55, -187500.02, -117791.66, 187500.00, -187500.02, 147117.88, -187500.02, -187500.02, -187500.02, 0
56, -187500.02, -118704.12, 187500.00, -187500.02, 147090.55, -187500.02, -187500.02, -187500.02, 0
57, -187500.02, -120367.63, 187500.00, -187500.02, 146640.02, -187500.02, -187500.02, -187500.02, 0
58, -187500.02, -119292.17, 187500.00, -187500.02, 147215.58, -187500.02, -187500.02, -187500.02, 0
59, -187500.02, -117790.63, 187500.00, -187500.02, 148060.61, -187500.02, -187500.02, -187500.02, 0
60, -187500.02, -118426.22, 187500.00, -187500.02, 148171.81, -187500.02, -187500.02, -187500.02, 0
61, -187500.02, -120243.35, 187500.00, -187500.02, 147706.05, -187500.02, -187500.02, -187500.02, 0
62, -187500.02, -119664.46, 187500.00, -187500.02, 148101.11, -187500.02, -187500.02, -187500.02, 0
63, -187500.02, -117863.78, 187500.00, -187500.02, 148999.67, -187500.02, -187500.02, -187500.02, 0
64, -187500.02, -118171.26, 187500.00, -187500.02, 149275.19, -187500.02, -187500.02, -187500.02, 0
65, -187500.02, -119992.32, 187500.00, -187500.02, 148844.67, -187500.02, -187500.02, -187500.02, 0
66, -187500.02, -120001.51, 187500.00, -187500.02, 149035.53, -187500.02, -187500.02, -187500.02, 0
67, -187500.02, -118017.48, 187500.00, -187500.02, 149978.97, -187500.02, -187500.02, -187500.02, 0
68, -187500.02, -117962.83, 187500.00, -187500.02, 150361.14, -187500.02, -187500.02, -187500.02, 0
69, -187500.02, -119670.14, 187500.00, -187500.02, 150002.55, -187500.02, -187500.02, -187500.02, 0
70, -187500.02, -120274.42, 187500.00, -187500.02, 149963.95, -187500.02, -187500.02, -187500.02, 0
71, -187500.02, -118270.54, 187500.00, -187500.02, 150875.50, -187500.02, -187500.02, -187500.02, 0
72, -187500.02, -117820.78, 187500.00, -187500.02, 151411.25, -187500.02, -187500.02, -187500.02, 0
73, -187500.02, -119323.27, 187500.00, -187500.02, 151109.36, -187500.02, -187500.02, -187500.02, 0
74, -187500.02, -120457.41, 187500.00, -187500.02, 150883.09, -187500.02, -187500.02, -187500.02, 0
75, -187500.02, -118596.72, 187500.00, -187500.02, 151734.30, -187500.02, -187500.02, -187500.02, 0
76, -187500.02, -117727.66, 187500.00, -187500.02, 152402.44, -187500.02, -187500.02, -187500.02, 0
77, -187500.02, -118959.83, 187500.00, -187500.02, 152231.00, -187500.02, -187500.02, -187500.02, 0
78, -187500.02, -120498.14, 187500.00, -187500.02, 151860.72, -187500.02, -187500.02, -187500.02, 0
79, -187500.02, -118982.49, 187500.00, -187500.02, 152589.63, -187500.02, -187500.02, -187500.02, 0
80, -187500.02, -117720.24, 187500.00, -187500.02, 153381.67, -187500.02, -187500.02, -187500.02, 0
81, -187500.02, -118635.77, 187500.00, -187500.02, 153402.86, -187500.02, -187500.02, -187500.02, 0
82, -187500.02, -120406.07, 187500.00, -187500.02, 152938.20, -187500.02, -187500.02, -187500.02, 0
83, -187500.02, -119363.25, 187500.00, -187500.02, 153452.31, -187500.02, -187500.02, -187500.02, 0
84, -187500.02, -117729.34, 187500.00, -187500.02, 154311.78, -187500.02, -187500.02, -187500.02, 0
85, -187500.02, -118312.85, 187500.00, -187500.02, 154478.06, -187500.02, -187500.02, -187500.02, 0
86, -187500.02, -120180.12, 187500.00, -187500.02, 154021.19, -187500.02, -187500.02, -187500.02, 0
87, -187500.02, -119724.08, 187500.00, -187500.02, 154331.86, -187500.02, -187500.02, -187500.02, 0
88, -187500.02, -117818.48, 187500.00, -187500.02, 155268.98, -187500.02, -187500.02, -187500.02, 0
89, -187500.02, -118043.34, 187500.00, -187500.02, 155544.08, -187500.02, -187500.02, -187500.02, 0
90, -187500.02, -119878.68, 187500.00, -187500.02, 155070.98, -187500.02, -187500.02, -187500.02, 0
91, -187500.02, -120054.73, 187500.00, -187500.02, 155172.80, -187500.02, -187500.02, -187500.02, 0
92, -187500.02, -118011.64, 187500.00, -187500.02, 156141.75, -187500.02, -187500.02, -187500.02, 0
93, -187500.02, -117850.84, 187500.00, -187500.02, 156586.23, -187500.02, -187500.02, -187500.02, 0
94, -187500.02, -119531.25, 187500.00, -187500.02, 156210.13, -187500.02, -187500.02, -187500.02, 0
95, -187500.02, -120302.70, 187500.00, -187500.02, 156108.25, -187500.02, -187500.02, -187500.02, 0
96, -187500.02, -118296.58, 187500.00, -187500.02, 157051.59, -187500.02, -187500.02, -187500.02, 0
97, -187500.02, -117728.69, 187500.00, -187500.02, 157637.81, -187500.02, -187500.02, -187500.02, 0
98, -187500.02, -119178.11, 187500.00, -187500.02, 157337.48, -187500.02, -187500.02, -187500.02, 0
99, -187500.02, -120460.01, 187500.00, -187500.02, 157041.55, -187500.02, -187500.02, -187500.02, 0
100, -187500.02, -118661.70, 187500.00, -187500.02, 157875.08, -187500.02, -187500.02, -187500.02, 0
101, -187500.02, -117675.70, 187500.00, -187500.02, 158586.92, -187500.02, -187500.02, -187500.02, 0
102, -187500.02, -118835.08, 187500.00, -187500.02, 158476.83, -187500.02, -187500.02, -187500.02, 0
103, -187500.02, -120471.47, 187500.00, -187500.02, 158035.64, -187500.02, -187500.02, -187500.02, 0
104, -187500.02, -119055.22, 187500.00, -187500.02, 158699.19, -187500.02, -187500.02, -187500.02, 0
105, -187500.02, -117659.02, 187500.00, -187500.02, 159550.45, -187500.02, -187500.02, -187500.02, 0
106, -187500.02, -118495.31, 187500.00, -187500.02, 159555.67, -187500.02, -187500.02, -187500.02, 0
107, -187500.02, -120339.44, 187500.00, -187500.02, 159051.23, -187500.02, -187500.02, -187500.02, 0
108, -187500.02, -119458.09, 187500.00, -187500.02, 159517.28, -187500.02, -187500.02, -187500.02, 0
109, -187500.02, -117721.80, 187500.00, -187500.02, 160428.66, -187500.02, -187500.02, -187500.02, 0
110, -187500.02, -118213.21, 187500.00, -187500.02, 160575.55, -187500.02, -187500.02, -187500.02, 0
111, -187500.02, -120109.33, 187500.00, -187500.02, 160059.47, -187500.02, -187500.02, -187500.02, 0
112, -187500.02, -119843.84, 187500.00, -187500.02, 160321.84, -187500.02, -187500.02, -187500.02, 0
113, -187500.02, -117869.93, 187500.00, -187500.02, 161292.73, -187500.02, -187500.02, -187500.02, 0
114, -187500.02, -117985.80, 187500.00, -187500.02, 161628.34, -187500.02, -187500.02, -187500.02, 0
115, -187500.02, -119798.95, 187500.00, -187500.02, 161186.61, -187500.02, -187500.02, -187500.02, 0
116, -187500.02, -120166.98, 187500.00, -187500.02, 161238.55, -187500.02, -187500.02, -187500.02, 0
117, -187500.02, -118101.88, 187500.00, -187500.02, 162231.70, -187500.02, -187500.02, -187500.02, 0
118, -187500.02, -117815.23, 187500.00, -187500.02, 162716.27, -187500.02, -187500.02, -187500.02, 0
119, -187500.02, -119443.85, 187500.00, -187500.02, 162354.08, -187500.02, -187500.02, -187500.02, 0
120, -187500.02, -120393.02, 187500.00, -187500.02, 162197.50, -187500.02, -187500.02, -187500.02, 0
121, -187500.02, -118410.98, 187500.00, -187500.02, 163096.16, -187500.02, -187500.02, -187500.02, 0
122, -187500.02, -117701.20, 187500.00, -187500.02, 163681.89, -187500.02, -187500.02, -187500.02, 0
123, -187500.02, -119070.60, 187500.00, -187500.02, 163428.22, -187500.02, -187500.02, -187500.02, 0
124, -187500.02, -120497.27, 187500.00, -187500.02, 163060.73, -187500.02, -187500.02, -187500.02, 0
125, -187500.02, -118787.94, 187500.00, -187500.02, 163873.70, -187500.02, -187500.02, -187500.02, 0
126, -187500.02, -117647.46, 187500.00, -187500.02, 164690.98, -187500.02, -187500.02, -187500.02, 0
127, -187500.02, -118712.44, 187500.00, -187500.02, 164623.86, -187500.02, -187500.02, -187500.02, 0
128, -187500.02, -120471.72, 187500.00, -187500.02, 164147.56, -187500.02, -187500.02, -187500.02, 0
129, -187500.02, -119210.88, 187500.00, -187500.02, 164764.00, -187500.02, -187500.02, -187500.02, 0
130, -187500.02, -117669.73, 187500.00, -187500.02, 165635.00, -187500.02, -187500.02, -187500.02, 0
131, -187500.02, -118397.14, 187500.00, -187500.02, 165718.98, -187500.02, -187500.02, -187500.02, 0
132, -187500.02, -120317.00, 187500.00, -187500.02, 165153.23, -187500.02, -187500.02, -187500.02, 0
133, -187500.02, -119630.49, 187500.00, -187500.02, 165570.39, -187500.02, -187500.02, -187500.02, 0
134, -187500.02, -117767.74, 187500.00, -187500.02, 166519.22, -187500.02, -187500.02, -187500.02, 0
135, -187500.02, -118133.81, 187500.00, -187500.02, 166777.56, -187500.02, -187500.02, -187500.02, 0
136, -187500.02, -120060.27, 187500.00, -187500.02, 166300.64, -187500.02, -187500.02, -187500.02, 0
137, -187500.02, -120016.26, 187500.00, -187500.02, 166493.09, -187500.02, -187500.02, -187500.02, 0
138, -187500.02, -117951.31, 187500.00, -187500.02, 167472.63, -187500.02, -187500.02, -187500.02, 0
139, -187500.02, -117922.26, 187500.00, -187500.02, 167832.73, -187500.02, -187500.02, -187500.02, 0
140, -187500.02, -119724.03, 187500.00, -187500.02, 167343.73, -187500.02, -187500.02, -187500.02, 0
141, -187500.02, -120313.27, 187500.00, -187500.02, 167272.25, -187500.02, -187500.02, -187500.02, 0
142, -187500.02, -118208.63, 187500.00, -187500.02, 168255.45, -187500.02, -187500.02, -187500.02, 0
143, -187500.02, -117764.43, 187500.00, -187500.02, 168791.00, -187500.02, -187500.02, -187500.02, 0
144, -187500.02, -119347.29, 187500.00, -187500.02, 168446.23, -187500.02, -187500.02, -187500.02, 0
145, -187500.02, -120502.54, 187500.00, -187500.02, 168184.94, -187500.02, -187500.02, -187500.02, 0
146, -187500.02, -118550.01, 187500.00, -187500.02, 169070.56, -187500.02, -187500.02, -187500.02, 0
147, -187500.02, -117674.27, 187500.00, -187500.02, 169753.53, -187500.02, -187500.02, -187500.02, 0
148, -187500.02, -118967.96, 187500.00, -187500.02, 169535.42, -187500.02, -187500.02, -187500.02, 0
149, -187500.02, -120556.90, 187500.00, -187500.02, 169107.58, -187500.02, -187500.02, -187500.02, 0
150, -187500.02, -118943.26, 187500.00, -187500.02, 169907.78, -187500.02, -187500.02, -187500.02, 0
151, -187500.02, -117642.21, 187500.00, -187500.02, 170752.97, -187500.02, -187500.02, -187500.02, 0
152, -187500.02, -118616.99, 187500.00, -187500.02, 170728.34, -187500.02, -187500.02, -187500.02, 0
153, -187500.02, -120475.83, 187500.00, -187500.02, 170197.91, -187500.02, -187500.02, -187500.02, 0
154, -187500.02, -119366.24, 187500.00, -187500.02, 170834.80, -187500.02, -187500.02, -187500.02, 0
155, -187500.02, -117681.69, 187500.00, -187500.02, 171751.72, -187500.02, -187500.02, -187500.02, 0
156, -187500.02, -118301.70, 187500.00, -187500.02, 171848.88, -187500.02, -187500.02, -187500.02, 0
157, -187500.02, -120269.63, 187500.00, -187500.02, 171279.83, -187500.02, -187500.02, -187500.02, 0
158, -187500.02, -119776.84, 187500.00, -187500.02, 171613.77, -187500.02, -187500.02, -187500.02, 0
159, -187500.02, -117810.84, 187500.00, -187500.02, 172604.02, -187500.02, -187500.02, -187500.02, 0
160, -187500.02, -118057.66, 187500.00, -187500.02, 172902.00, -187500.02, -187500.02, -187500.02, 0
161, -187500.02, -119972.20, 187500.00, -187500.02, 172355.48, -187500.02, -187500.02, -187500.02, 0
162, -187500.02, -120132.93, 187500.00, -187500.02, 172445.58, -187500.02, -187500.02, -187500.02, 0
163, -187500.02, -118024.16, 187500.00, -187500.02, 173498.55, -187500.02, -187500.02, -187500.02, 0
164, -187500.02, -117862.78, 187500.00, -187500.02, 173928.48, -187500.02, -187500.02, -187500.02, 0
165, -187500.02, -119609.26, 187500.00, -187500.02, 173413.08, -187500.02, -187500.02, -187500.02, 0
166, -187500.02, -120390.54, 187500.00, -187500.02, 173269.20, -187500.02, -187500.02, -187500.02, 0
167, -187500.02, -118303.58, 187500.00, -187500.02, 174270.27, -187500.02, -187500.02, -187500.02, 0
168, -187500.02, -117724.11, 187500.00, -187500.02, 174904.20, -187500.02, -187500.02, -187500.02, 0
169, -187500.02, -119225.68, 187500.00, -187500.02, 174610.75, -187500.02, -187500.02, -187500.02, 0
170, -187500.02, -120531.98, 187500.00, -187500.02, 174301.53, -187500.02, -187500.02, -187500.02, 0
171, -187500.02, -118660.04, 187500.00, -187500.02, 175241.77, -187500.02, -187500.02, -187500.02, 0
172, -187500.02, -117650.99, 187500.00, -187500.02, 176008.56, -187500.02, -187500.02, -187500.02, 0
173, -187500.02, -118854.44, 187500.00, -187500.02, 175850.42, -187500.02, -187500.02, -187500.02, 0
174, -187500.02, -120540.77, 187500.00, -187500.02, 175371.61, -187500.02, -187500.02, -187500.02, 0
175, -187500.02, -119067.07, 187500.00, -187500.02, 176151.67, -187500.02, -187500.02, -187500.02, 0
176, -187500.02, -117655.94, 187500.00, -187500.02, 177031.38, -187500.02, -187500.02, -187500.02, 0
177, -187500.02, -118524.23, 187500.00, -187500.02, 177013.09, -187500.02, -187500.02, -187500.02, 0
178, -187500.02, -120413.42, 187500.00, -187500.02, 176449.00, -187500.02, -187500.02, -187500.02, 0
179, -187500.02, -119491.98, 187500.00, -187500.02, 176954.44, -187500.02, -187500.02, -187500.02, 0
180, -187500.02, -117737.36, 187500.00, -187500.02, 177936.31, -187500.02, -187500.02, -187500.02, 0
181, -187500.02, -118245.91, 187500.00, -187500.02, 178105.28, -187500.02, -187500.02, -187500.02, 0
182, -187500.02, -120167.47, 187500.00, -187500.02, 177537.23, -187500.02, -187500.02, -187500.02, 0
183, -187500.02, -119869.77, 187500.00, -187500.02, 177829.67, -187500.02, -187500.02, -187500.02, 0
184, -187500.02, -117892.84, 187500.00, -187500.02, 178862.92, -187500.02, -187500.02, -187500.02, 0
185, -187500.02, -118021.59, 187500.00, -187500.02, 179212.28, -187500.02, -187500.02, -187500.02, 0
186, -187500.02, -119836.10, 187500.00, -187500.02, 178708.73, -187500.02, -187500.02, -187500.02, 0
187, -187500.02, -120169.99, 187500.00, -187500.02, 178763.02, -187500.02, -187500.02, -187500.02, 0
188, -187500.02, -118114.64, 187500.00, -187500.02, 179800.89, -187500.02, -187500.02, -187500.02, 0
189, -187500.02, -117864.12, 187500.00, -187500.02, 180334.67, -187500.02, -187500.02, -187500.02, 0
190, -187500.02, -119495.35, 187500.00, -187500.02, 179934.11, -187500.02, -187500.02, -187500.02, 0
191, -187500.02, -120393.15, 187500.00, -187500.02, 179754.13, -187500.02, -187500.02, -187500.02, 0
192, -187500.02, -118423.90, 187500.00, -187500.02, 180741.41, -187500.02, -187500.02, -187500.02, 0
193, -187500.02, -117779.02, 187500.00, -187500.02, 181364.22, -187500.02, -187500.02, -187500.02, 0
194, -187500.02, -119138.05, 187500.00, -187500.02, 181071.28, -187500.02, -187500.02, -187500.02, 0
195, -187500.02, -120471.95, 187500.00, -187500.02, 180718.50, -187500.02, -187500.02, -187500.02, 0
196, -187500.02, -118783.02, 187500.00, -187500.02, 181581.00, -187500.02, -187500.02, -187500.02, 0
197, -187500.02, -117762.55, 187500.00, -187500.02, 182327.42, -187500.02, -187500.02, -187500.02, 0
198, -187500.02, -118822.12, 187500.00, -187500.02, 182220.88, -187500.02, -187500.02, -187500.02, 0
199, -187500.02, -120402.30, 187500.00, -187500.02, 181733.72, -187500.02, -187500.02, -187500.02, 0
200, -187500.02, -119115.86, 187500.00, -187500.02, 182415.13, -187500.02, -187500.02, -187500.02, 0
201, -187500.02, -117802.61, 187500.00, -187500.02, 183290.13, -187500.02, -187500.02, -187500.02, 0
202, -187500.02, -118571.35, 187500.00, -187500.02, 183291.66, -187500.02, -187500.02, -187500.02, 0
203, -187500.02, -120256.83, 187500.00, -187500.02, 182747.59, -187500.02, -187500.02, -187500.02, 0
204, -187500.02, -119475.57, 187500.00, -187500.02, 183290.48, -187500.02, -187500.02, -187500.02, 0
205, -187500.02, -117862.02, 187500.00, -187500.02, 184284.73, -187500.02, -187500.02, -187500.02, 0
206, -187500.02, -118319.65, 187500.00, -187500.02, 184453.81, -187500.02, -187500.02, -187500.02, 0
207, -187500.02, -120047.82, 187500.00, -187500.02, 183913.77, -187500.02, -187500.02, -187500.02, 0
208, -187500.02, -119848.51, 187500.00, -187500.02, 184162.00, -187500.02, -187500.02, -187500.02, 0
209, -187500.02, -118004.60, 187500.00, -187500.02, 185155.92, -187500.02, -187500.02, -187500.02, 0
210, -187500.02, -118106.37, 187500.00, -187500.02, 185494.66, -187500.02, -187500.02, -187500.02, 0
211, -187500.02, -119756.26, 187500.00, -187500.02, 185024.06, -187500.02, -187500.02, -187500.02, 0
212, -187500.02, -120149.09, 187500.00, -187500.02, 185032.72, -187500.02, -187500.02, -187500.02, 0
213, -187500.02, -118216.88, 187500.00, -187500.02, 186048.63, -187500.02, -187500.02, -187500.02, 0
214, -187500.02, -117943.27, 187500.00, -187500.02, 186573.63, -187500.02, -187500.02, -187500.02, 0
215, -187500.02, -119422.55, 187500.00, -187500.02, 186244.97, -187500.02, -187500.02, -187500.02, 0
216, -187500.02, -120347.63, 187500.00, -187500.02, 186052.31, -187500.02, -187500.02, -187500.02, 0
217, -187500.02, -118504.23, 187500.00, -187500.02, 187053.42, -187500.02, -187500.02, -187500.02, 0
218, -187500.02, -117833.41, 187500.00, -187500.02, 187500.00, -187500.02, -187500.02, -187500.02, 0
219, -187500.02, -119073.13, 187500.00, -187500.02, 187500.00, -187500.02, -187500.02, -187500.02, 0
220, -187500.02, -120414.97, 187500.00, -187500.02, 187096.34, -187500.02, -187500.02, -187500.02, 0
221, -187500.02, -118850.88, 187500.00, -187500.02, 187500.00, -187500.02, -187500.02, -187500.02, 0
222, -187500.02, -117789.06, 187500.00, -187500.02, 187500.00, -187500.02, -187500.02, -187500.02, 0
223, -187500.02, -118761.23, 187500.00, -187500.02, 187500.00, -187500.02, -187500.02, -187500.02, 0
224, -187500.02, -120366.66, 187500.00, -187500.02, 187500.00, -187500.02, -187500.02, -187500.02, 0
225, -187500.02, -119232.96, 187500.00, -187500.02, 187500.00, -187500.02, -187500.02, -187500.02, 0
226, -187500.02, -117819.20, 187500.00, -187500.02, 187500.00, -187500.02, -187500.02, -187500.02, 0
227, -187500.02, -118485.21, 187500.00, -187500.02, 187500.00, -187500.02, -187500.02, -187500.02, 0
228, -187500.02, -120212.08, 187500.00, -187500.02, 187500.00, -187500.02, -187500.02, -187500.02, 0
229, -187500.02, -119621.81, 187500.00, -187500.02, 187500.00, -187500.02, -187500.02, -187500.02, 0
230, -187500.02, -117920.65, 187500.00, -187500.02, 187500.00, -187500.02, -187500.02, -187500.02, 0
231, -187500.02, -118277.65, 187500.00, -187500.02, 187500.00, -187500.02, -187500.02, -187500.02, 0
232, -187500.02, -120016.26, 187500.00, -187500.02, 187500.00, -187500.02, -187500.02, -187500.02, 0
233, -187500.02, -120006.71, 187500.00, -187500.02, 187500.00, -187500.02, -187500.02, -187500.02, 0
234, -187500.02, -118049.70, 187500.00, -187500.02, 187500.00, -187500.02, -187500.02, -187500.02, 0
235, -187500.02, -118027.13, 187500.00, -187500.02, 187500.00, -187500.02, -187500.02, -187500.02, 0
236, -187500.02, -119679.20, 187500.00, -187500.02, 187500.00, -187500.02, -187500.02, -187500.02, 0
237, -187500.02, -120278.13, 187500.00, -187500.02, 187500.00, -187500.02, -187500.02, -187500.02, 0
238, -187500.02, -118316.88, 187500.00, -187500.02, 187500.00, -187500.02, -187500.02, -187500.02, 0
239, -187500.02, -117918.55, 187500.00, -187500.02, 187500.00, -187500.02, -187500.02, -187500.02, 0
240, -187500.02, -119356.88, 187500.00, -187500.02, 187500.00, -187500.02, -187500.02, -187500.02, 0
241, -187500.02, -120438.21, 187500.00, -187500.02, 187500.00, -187500.02, -187500.02, -187500.02, 0
242, -187500.02, -118657.00, 187500.00, -187500.02, 187500.00, -187500.02, -187500.02, -187500.02, 0
243, -187500.02, -117867.83, 187500.00, -187500.02, 187500.00, -187500.02, -187500.02, -187500.02, 0
244, -187500.02, -119049.66, 187500.00, -187500.02, 187500.00, -187500.02, -187500.02, -187500.02, 0
245, -187500.02, -120498.83, 187500.00, -187500.02, 187500.00, -187500.02, -187500.02, -187500.02, 0
246, -187500.02, -119044.74, 187500.00, -187500.02, 187500.00, -187500.02, -187500.02, -187500.02, 0
247, -187500.02, -117864.77, 187500.00, -187500.02, 187500.00, -187500.02, -187500.02, -187500.02, 0
248, -187500.02, -118757.16, 187500.00, -187500.02, 187500.00, -187500.02, -187500.02, -187500.02, 0
249, -187500.02, -120420.17, 187500.00, -187500.02, 187500.00, -187500.02, -187500.02, -187500.02, 0
250, -187500.02, -119441.15, 187500.00, -187500.02, 187500.00, -187500.02, -187500.02, -187500.02, 0
251, -187500.02, -117913.63, 187500.00, -187500.02, 187500.00, -187500.02, -187500.02, -187500.02, 0
252, -187500.02, -118488.96, 187500.00, -187500.02, 187500.00, -187500.02, -187500.02, -187500.02, 0
253, -187500.02, -120229.49, 187500.00, -187500.02, 187500.00, -187500.02, -187500.02, -187500.02, 0
254, -187500.02, -119820.57, 187500.00, -187500.02, 187500.00, -187500.02, -187500.02, -187500.02, 0
255, -187500.02, -118035.02, 187500.00, -187500.02, 187500.00, -187500.02, -187500.02, -187500.02, 0
0, -187500.02, -118280.71, 187500.00, -187500.02, 187500.00, -187500.02, -187500.02, -187500.02, 0
1, -187500.02, -119974.48, 187500.00, -187500.02, 187500.00, -187500.02, -187500.02, -187500.02, 0
2, -187500.02, -120153.09, 187500.00, -187500.02, 187500.00, -187500.02, -187500.02, -187500.02, 0
3, -187500.02, -118246.85, 187500.00, -187500.02, 187500.00, -187500.02, -187500.02, -187500.02, 0
4, -187500.02, -118130.42, 187500.00, -187500.02, 187500.00, -187500.02, -187500.02, -187500.02, 0
5, -187500.02, -119669.25, 187500.00, -187500.02, 187500.00, -187500.02, -187500.02, -187500.02, 0
6, -187500.02, -120386.98, 187500.00, -187500.02, 187500.00, -187500.02, -187500.02, -187500.02, 0
7, -187500.02, -118507.70, 187500.00, -187500.02, 187500.00, -187500.02, -187500.02, -187500.02, 0
8, -187500.02, -118010.73, 187500.00, -187500.02, 187500.00, -187500.02, -187500.02, -187500.02, 0
9, -187500.02, -119331.87, 187500.00, -187500.02, 187500.00, -187500.02, -187500.02, -187500.02, 0
10, -187500.02, -120500.51, 187500.00, -187500.02, 187500.00, -187500.02, -187500.02, -187500.02, 0
11, -187500.02, -118832.40, 187500.00, -187500.02, 187500.00, -187500.02, -187500.02, -187500.02, 0
12, -187500.02, -117942.35, 187500.00, -187500.02, 187500.00, -187500.02, -187500.02, -187500.02, 0
13, -187500.02, -119008.84, 187500.00, -187500.02, 187500.00, -187500.02, -187500.02, -187500.02, 0
14, -187500.02, -120498.67, 187500.00, -187500.02, 187500.00, -187500.02, -187500.02, -187500.02, 0
15, -187500.02, -119196.91, 187500.00, -187500.02, 187500.00, -187500.02, -187500.02, -187500.02, 0
16, -187500.02, -117931.35, 187500.00, -187500.02, 187500.00, -187500.02, -187500.02, -187500.02, 0
17, -187500.02, -118715.43, 187500.00, -187500.02, 187500.00, -187500.02, -187500.02, -187500.02, 0
18, -187500.02, -120377.39, 187500.00, -187500.02, 187500.00, -187500.02, -187500.02, -187500.02, 0
19, -187500.02, -119576.73, 187500.00, -187500.02, 187500.00, -187500.02, -187500.02, -187500.02, 0
20, -187500.02, -117987.79, 187500.00, -187500.02, 187500.00, -187500.02, -187500.02, -187500.02, 0
21, -187500.02, -118465.38, 187500.00, -187500.02, 187500.00, -187500.02, -187500.02, -187500.02, 0
22, -187500.02, -120168.25, 187500.00, -187500.02, 187500.00, -187500.02, -187500.02, -187500.02, 0
23, -187500.02, -119933.31, 187500.00, -187500.02, 187500.00, -187500.02, -187500.02, -187500.02, 0
24, -187500.02, -118117.03, 187500.00, -187500.02, 187500.00, -187500.02, -187500.02, -187500.02, 0
25, -187500.02, -118254.38, 187500.00, -187500.02, 187500.00, -187500.02, -187500.02, -187500.02, 0
26, -187500.02, -119880.80, 187500.00, -187500.02, 187500.00, -187500.02, -187500.02, -187500.02, 0
27, -187500.02, -120216.95, 187500.00, -187500.02, 187500.00, -187500.02, -187500.02, -187500.02, 0
28, -187500.02, -118325.82, 187500.00, -187500.02, 187500.00, -187500.02, -187500.02, -187500.02, 0
29, -187500.02, -118115.22, 187500.00, -187500.02, 187500.00, -187500.02, -187500.02, -187500.02, 0
30, -187500.02, -119574.77, 187500.00, -187500.02, 187500.00, -187500.02, -187500.02, -187500.02, 0
31, -187500.02, -120424.35, 187500.00, -187500.02, 187500.00, -187500.02, -187500.02, -187500.02, 0
32, -187500.02, -118613.35, 187500.00, -187500.02, 187500.00, -187500.02, -187500.02, -187500.02, 0
33, -187500.02, -118010.03, 187500.00, -187500.02, 187500.00, -187500.02, -187500.02, -187500.02, 0
34, -187500.02, -119247.16, 187500.00, -187500.02, 187500.00, -187500.02, -187500.02, -187500.02, 0
35, -187500.02, -120512.38, 187500.00, -187500.02, 187500.00, -187500.02, -187500.02, -187500.02, 0
36, -187500.02, -118953.99, 187500.00, -187500.02, 187500.00, -187500.02, -187500.02, -187500.02, 0
37, -187500.02, -117951.31, 187500.00, -187500.02, 187500.00, -187500.02, -187500.02, -187500.02, 0
38, -187500.02, -118926.85, 187500.00, -187500.02, 187500.00, -187500.02, -187500.02, -187500.02, 0
39, -187500.02, -120477.53, 187500.00, -187500.02, 187500.00, -187500.02, -187500.02, -187500.02, 0
40, -187500.02, -119332.47, 187500.00, -187500.02, 187500.00, -187500.02, -187500.02, -187500.02, 0
41, -187500.02, -117956.79, 187500.00, -187500.02, 187500.00, -187500.02, -187500.02, -187500.02, 0
42, -187500.02, -118641.16, 187500.00, -187500.02, 187500.00, -187500.02, -187500.02, -187500.02, 0
43, -187500.02, -120329.18, 187500.00, -187500.02, 187500.00, -187500.02, -187500.02, -187500.02, 0
44, -187500.02, -119710.09, 187500.00, -187500.02, 187500.00, -187500.02, -187500.02, -187500.02, 0
45, -187500.02, -118024.02, 187500.00, -187500.02, 187500.00, -187500.02, -187500.02, -187500.02, 0
46, -187500.02, -118382.03, 187500.00, -187500.02, 187500.00, -187500.02, -187500.02, -187500.02, 0
47, -187500.02, -120084.90, 187500.00, -187500.02, 187500.00, -187500.02, -187500.02, -187500.02, 0
48, -187500.02, -120075.06, 187500.00, -187500.02, 187500.00, -187500.02, -187500.02, -187500.02, 0
49, -187500.02, -118194.50, 187500.00, -187500.02, 187500.00, -187500.02, -187500.02, -187500.02, 0
50, -187500.02, -118169.29, 187500.00, -187500.02, 187500.00, -187500.02, -187500.02, -187500.02, 0
51, -187500.02, -119767.17, 187500.00, -187500.02, 187500.00, -187500.02, -187500.02, -187500.02, 0
52, -187500.02, -120387.07, 187500.00, -187500.02, 187500.00, -187500.02, -187500.02, -187500.02, 0
53, -187500.02, -118451.08, 187500.00, -187500.02, 187500.00, -187500.02, -187500.02, -187500.02, 0
54, -187500.02, -118003.57, 187500.00, -187500.02, 187500.00, -187500.02, -187500.02, -187500.02, 0
55, -187500.02, -119432.20, 187500.00, -187500.02, 187500.00, -187500.02, -187500.02, -187500.02, 0
56, -187500.02, -120587.84, 187500.00, -187500.02, 187500.00, -187500.02, -187500.02, -187500.02, 0
57, -187500.02, -118797.55, 187500.00, -187500.02, 187500.00, -187500.02, -187500.02, -187500.02, 0
58, -187500.02, -117914.84, 187500.00, -187500.02, 187500.00, -187500.02, -187500.02, -187500.02, 0
59, -187500.02, -119084.99, 187500.00, -187500.02, 187500.00, -187500.02, -187500.02, -187500.02, 0
60, -187500.02, -120636.02, 187500.00, -187500.02, 187500.00, -187500.02, -187500.02, -187500.02, 0
61, -187500.02, -119182.25, 187500.00, -187500.02, 187500.00, -187500.02, -187500.02, -187500.02, 0
62, -187500.02, -117876.52, 187500.00, -187500.02, 187500.00, -187500.02, -187500.02, -187500.02, 0
63, -187500.02, -118751.84, 187500.00, -187500.02, 187500.00, -187500.02, -187500.02, -187500.02, 0
64, -187500.02, -120556.37, 187500.00, -187500.02, 187500.00, -187500.02, -187500.02, -187500.02, 0
65, -187500.02, -119597.68, 187500.00, -187500.02, 187500.00, -187500.02, -187500.02, -187500.02, 0
66, -187500.02, -117909.96, 187500.00, -187500.02, 187500.00, -187500.02, -187500.02, -187500.02, 0
67, -187500.02, -118459.28, 187500.00, -187500.02, 187500.00, -187500.02, -187500.02, -187500.02, 0
68, -187500.02, -120356.45, 187500.00, -187500.02, 187500.00, -187500.02, -187500.02, -187500.02, 0
69, -187500.02, -120005.59, 187500.00, -187500.02, 187500.00, -187500.02, -187500.02, -187500.02, 0
70, -187500.02, -118030.48, 187500.00, -187500.02, 187500.00, -187500.02, -187500.02, -187500.02, 0
71, -187500.02, -118200.98, 187500.00, -187500.02, 187500.00, -187500.02, -187500.02, -187500.02, 0
72, -187500.02, -120054.59, 187500.00, -187500.02, 187500.00, -187500.02, -187500.02, -187500.02, 0
73, -187500.02, -120346.19, 187500.00, -187500.02, 187500.00, -187500.02, -187500.02, -187500.02, 0
74, -187500.02, -118238.24, 187500.00, -187500.02, 187500.00, -187500.02, -187500.02, -187500.02, 0
75, -187500.02, -118015.44, 187500.00, -187500.02, 187500.00, -187500.02, -187500.02, -187500.02, 0
76, -187500.02, -119699.66, 187500.00, -187500.02, 187500.00, -187500.02, -187500.02, -187500.02, 0
77, -187500.02, -120583.61, 187500.00, -187500.02, 187500.00, -187500.02, -187500.02, -187500.02, 0
78, -187500.02, -118524.95, 187500.00, -187500.02, 187500.00, -187500.02, -187500.02, -187500.02, 0
79, -187500.02, -117879.61, 187500.00, -187500.02, 187500.00, -187500.02, -187500.02, -187500.02, 0
80, -187500.02, -119324.16, 187500.00, -187500.02, 187500.00, -187500.02, -187500.02, -187500.02, 0
81, -187500.02, -120702.16, 187500.00, -187500.02, 187500.00, -187500.02, -187500.02, -187500.02, 0
82, -187500.02, -118893.55, 187500.00, -187500.02, 187500.00, -187500.02, -187500.02, -187500.02, 0
83, -187500.02, -117809.70, 187500.00, -187500.02, 187500.00, -187500.02, -187500.02, -187500.02, 0
84, -187500.02, -118954.57, 187500.00, -187500.02, 187500.00, -187500.02, -187500.02, -187500.02, 0
85, -187500.02, -120679.84, 187500.00, -187500.02, 187500.00, -187500.02, -187500.02, -187500.02, 0
86, -187500.02, -119304.82, 187500.00, -187500.02, 187500.00, -187500.02, -187500.02, -187500.02, 0
87, -187500.02, -117808.80, 187500.00, -187500.02, 187500.00, -187500.02, -187500.02, -187500.02, 0
88, -187500.02, -118625.89, 187500.00, -187500.02, 187500.00, -187500.02, -187500.02, -187500.02, 0
89, -187500.02, -120534.98, 187500.00, -187500.02, 187500.00, -187500.02, -187500.02, -187500.02, 0
90, -187500.02, -119731.52, 187500.00, -187500.02, 187500.00, -187500.02, -187500.02, -187500.02, 0
91, -187500.02, -117896.73, 187500.00, -187500.02, 187500.00, -187500.02, -187500.02, -187500.02, 0
92, -187500.02, -118346.09, 187500.00, -187500.02, 187500.00, -187500.02, -187500.02, -187500.02, 0
93, -187500.02, -120270.35, 187500.00, -187500.02, 187500.00, -187500.02, -187500.02, -187500.02, 0
94, -187500.02, -120110.83, 187500.00, -187500.02, 187500.00, -187500.02, -187500.02, -187500.02, 0
95, -187500.02, -118058.09, 187500.00, -187500.02, 187500.00, -187500.02, -187500.02, -187500.02, 0
96, -187500.02, -118117.52, 187500.00, -187500.02, 187500.00, -187500.02, -187500.02, -187500.02, 0
97, -187500.02, -119930.88, 187500.00, -187500.02, 187500.00, -187500.02, -187500.02, -187500.02, 0
98, -187500.02, -120415.93, 187500.00, -187500.02, 187500.00, -187500.02, -187500.02, -187500.02, 0
99, -187500.02, -118305.12, 187500.00, -187500.02, 187500.00, -187500.02, -187500.02, -187500.02, 0
100, -187500.02, -117952.07, 187500.00, -187500.02, 187500.00, -187500.02, -187500.02, -187500.02, 0
101, -187500.02, -119562.16, 187500.00, -187500.02, 187500.00, -187500.02, -187500.02, -187500.02, 0
102, -187500.02, -120620.72, 187500.00, -187500.02, 187500.00, -187500.02, -187500.02, -187500.02, 0
103, -187500.02, -118633.31, 187500.00, -187500.02, 187500.00, -187500.02, -187500.02, -187500.02, 0
104, -187500.02, -117848.00, 187500.00, -187500.02, 187500.00, -187500.02, -187500.02, -187500.02, 0
105, -187500.02, -119183.90, 187500.00, -187500.02, 187500.00, -187500.02, -187500.02, -187500.02, 0
106, -187500.02, -120688.17, 187500.00, -187500.02, 187500.00, -187500.02, -187500.02, -187500.02, 0
107, -187500.02, -119027.98, 187500.00, -187500.02, 187500.00, -187500.02, -187500.02, -187500.02, 0
108, -187500.02, -117811.64, 187500.00, -187500.02, 187500.00, -187500.02, -187500.02, -187500.02, 0
109, -187500.02, -118834.79, 187500.00, -187500.02, 187500.00, -187500.02, -187500.02, -187500.02, 0
110, -187500.02, -120629.43, 187500.00, -187500.02, 187500.00, -187500.02, -187500.02, -187500.02, 0
111, -187500.02, -119462.36, 187500.00, -187500.02, 187500.00, -187500.02, -187500.02, -187500.02, 0
112, -187500.02, -117862.63, 187500.00, -187500.02, 187500.00, -187500.02, -187500.02, -187500.02, 0
113, -187500.02, -118540.53, 187500.00, -187500.02, 187500.00, -187500.02, -187500.02, -187500.02, 0
114, -187500.02, -120454.38, 187500.00, -187500.02, 187500.00, -187500.02, -187500.02, -187500.02, 0
115, -187500.02, -119885.45, 187500.00, -187500.02, 187500.00, -187500.02, -187500.02, -187500.02, 0
116, -187500.02, -117973.66, 187500.00, -187500.02, 187500.00, -187500.02, -187500.02, -187500.02, 0
117, -187500.02, -118281.38, 187500.00, -187500.02, 187500.00, -187500.02, -187500.02, -187500.02, 0
118, -187500.02, -120164.41, 187500.00, -187500.02, 187500.00, -187500.02, -187500.02, -187500.02, 0
119, -187500.02, -120243.46, 187500.00, -187500.02, 187500.00, -187500.02, -187500.02, -187500.02, 0
120, -187500.02, -118166.31, 187500.00, -187500.02, 187500.00, -187500.02, -187500.02, -187500.02, 0
121, -187500.02, -118073.53, 187500.00, -187500.02, 187500.00, -187500.02, -187500.02, -187500.02, 0
122, -187500.02, -119812.43, 187500.00, -187500.02, 187500.00, -187500.02, -187500.02, -187500.02, 0
123, -187500.02, -120505.58, 187500.00, -187500.02, 187500.00, -187500.02, -187500.02, -187500.02, 0
124, -187500.02, -118428.84, 187500.00, -187500.02, 187500.00, -187500.02, -187500.02, -187500.02, 0
125, -187500.02, -117939.53, 187500.00, -187500.02, 187500.00, -187500.02, -187500.02, -187500.02, 0
126, -187500.02, -119411.82, 187500.00, -187500.02, 187500.00, -187500.02, -187500.02, -187500.02, 0
127, -187500.02, -120594.32, 187500.00, -187500.02, 187500.00, -187500.02, -187500.02, -187500.02, 0
128, -187500.02, -118751.48, 187500.00, -187500.02, 187500.00, -187500.02, -187500.02, -187500.02, 0
129, -187500.02, -117829.09, 187500.00, -187500.02, 187500.00, -187500.02, -187500.02, -187500.02, 0
130, -187500.02, -119019.34, 187500.00, -187500.02, 187500.00, -187500.02, -187500.02, -187500.02, 0
131, -187500.02, -120593.00, 187500.00, -187500.02, 187500.00, -187500.02, -187500.02, -187500.02, 0
132, -187500.02, -119124.80, 187500.00, -187500.02, 187500.00, -187500.02, -187500.02, -187500.02, 0
133, -187500.02, -117803.23, 187500.00, -187500.02, 187500.00, -187500.02, -187500.02, -187500.02, 0
134, -187500.02, -118686.33, 187500.00, -187500.02, 187500.00, -187500.02, -187500.02, -187500.02, 0
135, -187500.02, -120495.48, 187500.00, -187500.02, 187500.00, -187500.02, -187500.02, -187500.02, 0
136, -187500.02, -119550.78, 187500.00, -187500.02, 187500.00, -187500.02, -187500.02, -187500.02, 0
137, -187500.02, -117860.79, 187500.00, -187500.02, 187500.00, -187500.02, -187500.02, -187500.02, 0
138, -187500.02, -118389.95, 187500.00, -187500.02, 187500.00, -187500.02, -187500.02, -187500.02, 0
139, -187500.02, -120261.59, 187500.00, -187500.02, 187500.00, -187500.02, -187500.02, -187500.02, 0
140, -187500.02, -119935.34, 187500.00, -187500.02, 187500.00, -187500.02, -187500.02, -187500.02, 0
141, -187500.02, -118001.91, 187500.00, -187500.02, 187500.00, -187500.02, -187500.02, -187500.02, 0
142, -187500.02, -118154.67, 187500.00, -187500.02, 187500.00, -187500.02, -187500.02, -187500.02, 0
143, -187500.02, -119944.44, 187500.00, -187500.02, 187500.00, -187500.02, -187500.02, -187500.02, 0
144, -187500.02, -120252.94, 187500.00, -187500.02, 187500.00, -187500.02, -187500.02, -187500.02, 0
145, -187500.02, -118214.05, 187500.00, -187500.02, 187500.00, -187500.02, -187500.02, -187500.02, 0
146, -187500.02, -117967.34, 187500.00, -187500.02, 187500.00, -187500.02, -187500.02, -187500.02, 0
147, -187500.02, -119572.02, 187500.00, -187500.02, 187500.00, -187500.02, -187500.02, -187500.02, 0
148, -187500.02, -120458.98, 187500.00, -187500.02, 187500.00, -187500.02, -187500.02, -187500.02, 0
149, -187500.02, -118502.53, 187500.00, -187500.02, 187500.00, -187500.02, -187500.02, -187500.02, 0
150, -187500.02, -117849.01, 187500.00, -187500.02, 187500.00, -187500.02, -187500.02, -187500.02, 0
151, -187500.02, -119206.99, 187500.00, -187500.02, 187500.00, -187500.02, -187500.02, -187500.02, 0
152, -187500.02, -120558.11, 187500.00, -187500.02, 187500.00, -187500.02, -187500.02, -187500.02, 0
153, -187500.02, -118863.66, 187500.00, -187500.02, 187500.00, -187500.02, -187500.02, -187500.02, 0
154, -187500.02, -117800.17, 187500.00, -187500.02, 187500.00, -187500.02, -187500.02, -187500.02, 0
155, -187500.02, -118864.70, 187500.00, -187500.02, 187500.00, -187500.02, -187500.02, -187500.02, 0
156, -187500.02, -120535.09, 187500.00, -187500.02, 187500.00, -187500.02, -187500.02, -187500.02, 0
157, -187500.02, -119275.07, 187500.00, -187500.02, 187500.00, -187500.02, -187500.02, -187500.02, 0
158, -187500.02, -117815.68, 187500.00, -187500.02, 187500.00, -187500.02, -187500.02, -187500.02, 0
159, -187500.02, -118541.89, 187500.00, -187500.02, 187500.00, -187500.02, -187500.02, -187500.02, 0
160, -187500.02, -120371.00, 187500.00, -187500.02, 187500.00, -187500.02, -187500.02, -187500.02, 0
161, -187500.02, -119674.07, 187500.00, -187500.02, 187500.00, -187500.02, -187500.02, -187500.02, 0
162, -187500.02, -117901.63, 187500.00, -187500.02, 187500.00, -187500.02, -187500.02, -187500.02, 0
163, -187500.02, -118273.63, 187500.00, -187500.02, 187500.00, -187500.02, -187500.02, -187500.02, 0
164, -187500.02, -120106.98, 187500.00, -187500.02, 187500.00, -187500.02, -187500.02, -187500.02, 0
165, -187500.02, -120026.20, 187500.00, -187500.02, 187500.00, -187500.02, -187500.02, -187500.02, 0
166, -187500.02, -118059.43, 187500.00, -187500.02, 187500.00, -187500.02, -187500.02, -187500.02, 0
167, -187500.02, -118062.49, 187500.00, -187500.02, 187500.00, -187500.02, -187500.02, -187500.02, 0
168, -187500.02, -119781.85, 187500.00, -187500.02, 187500.00, -187500.02, -187500.02, -187500.02, 0
169, -187500.02, -120316.35, 187500.00, -187500.02, 187500.00, -187500.02, -187500.02, -187500.02, 0
170, -187500.02, -118316.01, 187500.00, -187500.02, 187500.00, -187500.02, -187500.02, -187500.02, 0
171, -187500.02, -117915.48, 187500.00, -187500.02, 187500.00, -187500.02, -187500.02, -187500.02, 0
172, -187500.02, -119424.05, 187500.00, -187500.02, 187500.00, -187500.02, -187500.02, -187500.02, 0
173, -187500.02, -120491.37, 187500.00, -187500.02, 187500.00, -187500.02, -187500.02, -187500.02, 0
174, -187500.02, -118627.84, 187500.00, -187500.02, 187500.00, -187500.02, -187500.02, -187500.02, 0
175, -187500.02, -117814.72, 187500.00, -187500.02, 187500.00, -187500.02, -187500.02, -187500.02, 0
176, -187500.02, -119055.09, 187500.00, -187500.02, 187500.00, -187500.02, -187500.02, -187500.02, 0
177, -187500.02, -120531.64, 187500.00, -187500.02, 187500.00, -187500.02, -187500.02, -187500.02, 0
178, -187500.02, -118991.07, 187500.00, -187500.02, 187500.00, -187500.02, -187500.02, -187500.02, 0
179, -187500.02, -117775.00, 187500.00, -187500.02, 187500.00, -187500.02, -187500.02, -187500.02, 0
180, -187500.02, -118715.66, 187500.00, -187500.02, 187500.00, -187500.02, -187500.02, -187500.02, 0
181, -187500.02, -120455.34, 187500.00, -187500.02, 187500.00, -187500.02, -187500.02, -187500.02, 0
182, -187500.02, -119409.38, 187500.00, -187500.02, 187500.00, -187500.02, -187500.02, -187500.02, 0
183, -187500.02, -117843.82, 187500.00, -187500.02, 187500.00, -187500.02, -187500.02, -187500.02, 0
184, -187500.02, -118460.46, 187500.00, -187500.02, 187500.00, -187500.02, -187500.02, -187500.02, 0
185, -187500.02, -120305.16, 187500.00, -187500.02, 187500.00, -187500.02, -187500.02, -187500.02, 0
186, -187500.02, -119841.69, 187500.00, -187500.02, 187500.00, -187500.02, -187500.02, -187500.02, 0
187, -187500.02, -117994.52, 187500.00, -187500.02, 187500.00, -187500.02, -187500.02, -187500.02, 0
188, -187500.02, -118235.07, 187500.00, -187500.02, 187500.00, -187500.02, -187500.02, -187500.02, 0
189, -187500.02, -120045.76, 187500.00, -187500.02, 187500.00, -187500.02, -187500.02, -187500.02, 0
190, -187500.02, -120214.14, 187500.00, -187500.02, 187500.00, -187500.02, -187500.02, -187500.02, 0
191, -187500.02, -118225.63, 187500.00, -187500.02, 187500.00, -187500.02, -187500.02, -187500.02, 0
192, -187500.02, -118088.02, 187500.00, -187500.02, 187500.00, -187500.02, -187500.02, -187500.02, 0
193, -187500.02, -119748.93, 187500.00, -187500.02, 187500.00, -187500.02, -187500.02, -187500.02, 0
194, -187500.02, -120494.34, 187500.00, -187500.02, 187500.00, -187500.02, -187500.02, -187500.02, 0
195, -187500.02, -118521.73, 187500.00, -187500.02, 187500.00, -187500.02, -187500.02, -187500.02, 0
196, -187500.02, -117971.07, 187500.00, -187500.02, 187500.00, -187500.02, -187500.02, -187500.02, 0
197, -187500.02, -119403.06, 187500.00, -187500.02, 187500.00, -187500.02, -187500.02, -187500.02, 0
198, -187500.02, -120645.98, 187500.00, -187500.02, 187500.00, -187500.02, -187500.02, -187500.02, 0
199, -187500.02, -118889.46, 187500.00, -187500.02, 187500.00, -187500.02, -187500.02, -187500.02, 0
200, -187500.02, -117919.55, 187500.00, -187500.02, 187500.00, -187500.02, -187500.02, -187500.02, 0
201, -187500.02, -119049.77, 187500.00, -187500.02, 187500.00, -187500.02, -187500.02, -187500.02, 0
202, -187500.02, -120650.71, 187500.00, -187500.02, 187500.00, -187500.02, -187500.02, -187500.02, 0
203, -187500.02, -119276.93, 187500.00, -187500.02, 187500.00, -187500.02, -187500.02, -187500.02, 0
204, -187500.02, -117909.72, 187500.00, -187500.02, 187500.00, -187500.02, -187500.02, -187500.02, 0
205, -187500.02, -118725.45, 187500.00, -187500.02, 187500.00, -187500.02, -187500.02, -187500.02, 0
206, -187500.02, -120529.54, 187500.00, -187500.02, 187500.00, -187500.02, -187500.02, -187500.02, 0
207, -187500.02, -119693.97, 187500.00, -187500.02, 187500.00, -187500.02, -187500.02, -187500.02, 0
208, -187500.02, -117993.63, 187500.00, -187500.02, 187500.00, -187500.02, -187500.02, -187500.02, 0
209, -187500.02, -118456.58, 187500.00, -187500.02, 187500.00, -187500.02, -187500.02, -187500.02, 0
210, -187500.02, -120290.47, 187500.00, -187500.02, 187500.00, -187500.02, -187500.02, -187500.02, 0
211, -187500.02, -120066.95, 187500.00, -187500.02, 187500.00, -187500.02, -187500.02, -187500.02, 0
212, -187500.02, -118159.97, 187500.00, -187500.02, 187500.00, -187500.02, -187500.02, -187500.02, 0
213, -187500.02, -118235.52, 187500.00, -187500.02, 187500.00, -187500.02, -187500.02, -187500.02, 0
214, -187500.02, -119954.08, 187500.00, -187500.02, 187500.00, -187500.02, -187500.02, -187500.02, 0
215, -187500.02, -120354.17, 187500.00, -187500.02, 187500.00, -187500.02, -187500.02, -187500.02, 0
216, -187500.02, -118400.38, 187500.00, -187500.02, 187500.00, -187500.02, -187500.02, -187500.02, 0
217, -187500.02, -118088.11, 187500.00, -187500.02, 187500.00, -187500.02, -187500.02, -187500.02, 0
218, -187500.02, -119585.98, 187500.00, -187500.02, 187500.00, -187500.02, -187500.02, -187500.02, 0
219, -187500.02, -120539.80, 187500.00, -187500.02, 187500.00, -187500.02, -187500.02, -187500.02, 0
220, -187500.02, -118747.41, 187500.00, -187500.02, 187500.00, -187500.02, -187500.02, -187500.02, 0
221, -187500.02, -118018.52, 187500.00, -187500.02, 187500.00, -187500.02, -187500.02, -187500.02, 0
222, -187500.02, -119239.96, 187500.00, -187500.02, 187500.00, -187500.02, -187500.02, -187500.02, 0
223, -187500.02, -120607.59, 187500.00, -187500.02, 187500.00, -187500.02, -187500.02, -187500.02, 0
224, -187500.02, -119126.75, 187500.00, -187500.02, 187500.00, -187500.02, -187500.02, -187500.02, 0
225, -187500.02, -118007.75, 187500.00, -187500.02, 187500.00, -187500.02, -187500.02, -187500.02, 0
226, -187500.02, -118910.07, 187500.00, -187500.02, 187500.00, -187500.02, -187500.02, -187500.02, 0
227, -187500.02, -120531.38, 187500.00, -187500.02, 187500.00, -187500.02, -187500.02, -187500.02, 0
228, -187500.02, -119503.04, 187500.00, -187500.02, 187500.00, -187500.02, -187500.02, -187500.02, 0
229, -187500.02, -118049.37, 187500.00, -187500.02, 187500.00, -187500.02, -187500.02, -187500.02, 0
230, -187500.02, -118634.65, 187500.00, -187500.02, 187500.00, -187500.02, -187500.02, -187500.02, 0
231, -187500.02, -120355.40, 187500.00, -187500.02, 187500.00, -187500.02, -187500.02, -187500.02, 0
232, -187500.02, -119865.63, 187500.00, -187500.02, 187500.00, -187500.02, -187500.02, -187500.02, 0
233, -187500.02, -118153.98, 187500.00, -187500.02, 187500.00, -187500.02, -187500.02, -187500.02, 0
234, -187500.02, -118392.76, 187500.00, -187500.02, 187500.00, -187500.02, -187500.02, -187500.02, 0
235, -187500.02, -120094.00, 187500.00, -187500.02, 187500.00, -187500.02, -187500.02, -187500.02, 0
236, -187500.02, -120185.75, 187500.00, -187500.02, 187500.00, -187500.02, -187500.02, -187500.02, 0
237, -187500.02, -118344.93, 187500.00, -187500.02, 187500.00, -187500.02, -187500.02, -187500.02, 0
238, -187500.02, -118225.21, 187500.00, -187500.02, 187500.00, -187500.02, -187500.02, -187500.02, 0
239, -187500.02, -119790.46, 187500.00, -187500.02, 187500.00, -187500.02, -187500.02, -187500.02, 0
240, -187500.02, -120429.67, 187500.00, -187500.02, 187500.00, -187500.02, -187500.02, -187500.02, 0
241, -187500.02, -118592.70, 187500.00, -187500.02, 187500.00, -187500.02, -187500.02, -187500.02, 0
242, -187500.02, -118085.23, 187500.00, -187500.02, 187500.00, -187500.02, -187500.02, -187500.02, 0
243, -187500.02, -119438.35, 187500.00, -187500.02, 187500.00, -187500.02, -187500.02, -187500.02, 0
244, -187500.02, -120549.57, 187500.00, -187500.02, 187500.00, -187500.02, -187500.02, -187500.02, 0
245, -187500.02, -118899.03, 187500.00, -187500.02, 187500.00, -187500.02, -187500.02, -187500.02, 0
246, -187500.02, -118022.33, 187500.00, -187500.02, 187500.00, -187500.02, -187500.02, -187500.02, 0
247, -187500.02, -119104.38, 187500.00, -187500.02, 187500.00, -187500.02, -187500.02, -187500.02, 0
248, -187500.02, -120574.31, 187500.00, -187500.02, 187500.00, -187500.02, -187500.02, -187500.02, 0
249, -187500.02, -119269.02, 187500.00, -187500.02, 187500.00, -187500.02, -187500.02, -187500.02, 0
250, -187500.02, -118032.70, 187500.00, -187500.02, 187500.00, -187500.02, -187500.02, -187500.02, 0
251, -187500.02, -118817.71, 187500.00, -187500.02, 187500.00, -187500.02, -187500.02, -187500.02, 0
252, -187500.02, -120476.10, 187500.00, -187500.02, 187500.00, -187500.02, -187500.02, -187500.02, 0
253, -187500.02, -119636.23, 187500.00, -187500.02, 187500.00, -187500.02, -187500.02, -187500.02, 0
254, -187500.02, -118093.13, 187500.00, -187500.02, 187500.00, -187500.02, -187500.02, -187500.02, 0
255, -187500.02, -118555.30, 187500.00, -187500.02, 187500.00, -187500.02, -187500.02, -187500.02, 0
0, -187500.02, -120273.50, 187500.00, -187500.02, 187500.00, -187500.02, -187500.02, -187500.02, 0
1, -187500.02, -119984.30, 187500.00, -187500.02, 187500.00, -187500.02, -187500.02, -187500.02, 0
2, -187500.02, -118224.02, 187500.00, -187500.02, 187500.00, -187500.02, -187500.02, -187500.02, 0
3, -187500.02, -118341.95, 187500.00, -187500.02, 187500.00, -187500.02, -187500.02, -187500.02, 0
4, -187500.02, -119994.30, 187500.00, -187500.02, 187500.00, -187500.02, -187500.02, -187500.02, 0
5, -187500.02, -120273.15, 187500.00, -187500.02, 187500.00, -187500.02, -187500.02, -187500.02, 0
6, -187500.02, -118425.51, 187500.00, -187500.02, 187500.00, -187500.02, -187500.02, -187500.02, 0
7, -187500.02, -118177.09, 187500.00, -187500.02, 187500.00, -187500.02, -187500.02, -187500.02, 0
8, -187500.02, -119666.19, 187500.00, -187500.02, 187500.00, -187500.02, -187500.02, -187500.02, 0
9, -187500.02, -120478.63, 187500.00, -187500.02, 187500.00, -187500.02, -187500.02, -187500.02, 0
10, -187500.02, -118701.98, 187500.00, -187500.02, 187500.00, -187500.02, -187500.02, -187500.02, 0
11, -187500.02, -118073.06, 187500.00, -187500.02, 187500.00, -187500.02, -187500.02, -187500.02, 0
12, -187500.02, -119330.80, 187500.00, -187500.02, 187500.00, -187500.02, -187500.02, -187500.02, 0
13, -187500.02, -120567.92, 187500.00, -187500.02, 187500.00, -187500.02, -187500.02, -187500.02, 0
14, -187500.02, -119020.45, 187500.00, -187500.02, 187500.00, -187500.02, -187500.02, -187500.02, 0
15, -187500.02, -118013.16, 187500.00, -187500.02, 187500.00, -187500.02, -187500.02, -187500.02, 0
16, -187500.02, -118989.04, 187500.00, -187500.02, 187500.00, -187500.02, -187500.02, -187500.02, 0
17, -187500.02, -120529.45, 187500.00, -187500.02, 187500.00, -187500.02, -187500.02, -187500.02, 0
18, -187500.02, -119367.54, 187500.00, -187500.02, 187500.00, -187500.02, -187500.02, -187500.02, 0
19, -187500.02, -118017.03, 187500.00, -187500.02, 187500.00, -187500.02, -187500.02, -187500.02, 0
20, -187500.02, -118685.26, 187500.00, -187500.02, 187500.00, -187500.02, -187500.02, -187500.02, 0
21, -187500.02, -120382.55, 187500.00, -187500.02, 187500.00, -187500.02, -187500.02, -187500.02, 0
22, -187500.02, -119722.29, 187500.00, -187500.02, 187500.00, -187500.02, -187500.02, -187500.02, 0
23, -187500.02, -118096.20, 187500.00, -187500.02, 187500.00, -187500.02, -187500.02, -187500.02, 0
24, -187500.02, -118440.48, 187500.00, -187500.02, 187500.00, -187500.02, -187500.02, -187500.02, 0
25, -187500.02, -120146.66, 187500.00, -187500.02, 187500.00, -187500.02, -187500.02, -187500.02, 0
26, -187500.02, -120058.34, 187500.00, -187500.02, 187500.00, -187500.02, -187500.02, -187500.02, 0
27, -187500.02, -118255.23, 187500.00, -187500.02, 187500.00, -187500.02, -187500.02, -187500.02, 0
28, -187500.02, -118237.93, 187500.00, -187500.02, 187500.00, -187500.02, -187500.02, -187500.02, 0
29, -187500.02, -119839.59, 187500.00, -187500.02, 187500.00, -187500.02, -187500.02, -187500.02, 0
30, -187500.02, -120307.55, 187500.00, -187500.02, 187500.00, -187500.02, -187500.02, -187500.02, 0
31, -187500.02, -118471.66, 187500.00, -187500.02, 187500.00, -187500.02, -187500.02, -187500.02, 0
32, -187500.02, -118090.84, 187500.00, -187500.02, 187500.00, -187500.02, -187500.02, -187500.02, 0
33, -187500.02, -119502.16, 187500.00, -187500.02, 187500.00, -187500.02, -187500.02, -187500.02, 0
34, -187500.02, -120467.23, 187500.00, -187500.02, 187500.00, -187500.02, -187500.02, -187500.02, 0
35, -187500.02, -118762.28, 187500.00, -187500.02, 187500.00, -187500.02, -187500.02, -187500.02, 0
36, -187500.02, -118010.50, 187500.00, -187500.02, 187500.00, -187500.02, -187500.02, -187500.02, 0
37, -187500.02, -119168.08, 187500.00, -187500.02, 187500.00, -187500.02, -187500.02, -187500.02, 0
38, -187500.02, -120511.39, 187500.00, -187500.02, 187500.00, -187500.02, -187500.02, -187500.02, 0
39, -187500.02, -119087.07, 187500.00, -187500.02, 187500.00, -187500.02, -187500.02, -187500.02, 0
40, -187500.02, -117970.73, 187500.00, -187500.02, 187500.00, -187500.02, -187500.02, -187500.02, 0
41, -187500.02, -118843.55, 187500.00, -187500.02, 187500.00, -187500.02, -187500.02, -187500.02, 0
42, -187500.02, -120441.61, 187500.00, -187500.02, 187500.00, -187500.02, -187500.02, -187500.02, 0
43, -187500.02, -119444.95, 187500.00, -187500.02, 187500.00, -187500.02, -187500.02, -187500.02, 0
44, -187500.02, -117999.59, 187500.00, -187500.02, 187500.00, -187500.02, -187500.02, -187500.02, 0
45, -187500.02, -118562.77, 187500.00, -187500.02, 187500.00, -187500.02, -187500.02, -187500.02, 0
46, -187500.02, -120271.02, 187500.00, -187500.02, 187500.00, -187500.02, -187500.02, -187500.02, 0
47, -187500.02, -119806.64, 187500.00, -187500.02, 187500.00, -187500.02, -187500.02, -187500.02, 0
48, -187500.02, -118112.73, 187500.00, -187500.02, 187500.00, -187500.02, -187500.02, -187500.02, 0
49, -187500.02, -118329.57, 187500.00, -187500.02, 187500.00, -187500.02, -187500.02, -187500.02, 0
50, -187500.02, -120004.48, 187500.00, -187500.02, 187500.00, -187500.02, -187500.02, -187500.02, 0
51, -187500.02, -120099.96, 187500.00, -187500.02, 187500.00, -187500.02, -187500.02, -187500.02, 0
52, -187500.02, -118274.01, 187500.00, -187500.02, 187500.00, -187500.02, -187500.02, -187500.02, 0
53, -187500.02, -118146.11, 187500.00, -187500.02, 187500.00, -187500.02, -187500.02, -187500.02, 0
54, -187500.02, -119688.78, 187500.00, -187500.02, 187500.00, -187500.02, -187500.02, -187500.02, 0
55, -187500.02, -120329.78, 187500.00, -187500.02, 187500.00, -187500.02, -187500.02, -187500.02, 0
56, -187500.02, -118516.08, 187500.00, -187500.02, 187500.00, -187500.02, -187500.02, -187500.02, 0
57, -187500.02, -118011.04, 187500.00, -187500.02, 187500.00, -187500.02, -187500.02, -187500.02, 0
58, -187500.02, -119351.31, 187500.00, -187500.02, 187500.00, -187500.02, -187500.02, -187500.02, 0
59, -187500.02, -120461.08, 187500.00, -187500.02, 187500.00, -187500.02, -187500.02, -187500.02, 0
60, -187500.02, -118824.59, 187500.00, -187500.02, 187500.00, -187500.02, -187500.02, -187500.02, 0
61, -187500.02, -117945.62, 187500.00, -187500.02, 187500.00, -187500.02, -187500.02, -187500.02, 0
62, -187500.02, -119017.70, 187500.00, -187500.02, 187500.00, -187500.02, -187500.02, -187500.02, 0
63, -187500.02, -120471.98, 187500.00, -187500.02, 187500.00, -187500.02, -187500.02, -187500.02, 0
64, -187500.02, -119172.52, 187500.00, -187500.02, 187500.00, -187500.02, -187500.02, -187500.02, 0
65, -187500.02, -117927.60, 187500.00, -187500.02, 187500.00, -187500.02, -187500.02, -187500.02, 0
66, -187500.02, -118701.98, 187500.00, -187500.02, 187500.00, -187500.02, -187500.02, -187500.02, 0
67, -187500.02, -120360.41, 187500.00, -187500.02, 187500.00, -187500.02, -187500.02, -187500.02, 0
68, -187500.02, -119525.10, 187500.00, -187500.02, 187500.00, -187500.02, -187500.02, -187500.02, 0
69, -187500.02, -117982.47, 187500.00, -187500.02, 187500.00, -187500.02, -187500.02, -187500.02, 0
70, -187500.02, -118437.80, 187500.00, -187500.02, 187500.00, -187500.02, -187500.02, -187500.02, 0
71, -187500.02, -120161.03, 187500.00, -187500.02, 187500.00, -187500.02, -187500.02, -187500.02, 0
72, -187500.02, -119878.97, 187500.00, -187500.02, 187500.00, -187500.02, -187500.02, -187500.02, 0
73, -187500.02, -118112.11, 187500.00, -187500.02, 187500.00, -187500.02, -187500.02, -187500.02, 0
74, -187500.02, -118226.17, 187500.00, -187500.02, 187500.00, -187500.02, -187500.02, -187500.02, 0
75, -187500.02, -119891.76, 187500.00, -187500.02, 187500.00, -187500.02, -187500.02, -187500.02, 0
76, -187500.02, -120170.41, 187500.00, -187500.02, 187500.00, -187500.02, -187500.02, -187500.02, 0
77, -187500.02, -118314.13, 187500.00, -187500.02, 187500.00, -187500.02, -187500.02, -187500.02, 0
78, -187500.02, -118060.68, 187500.00, -187500.02, 187500.00, -187500.02, -187500.02, -187500.02, 0
79, -187500.02, -119556.70, 187500.00, -187500.02, 187500.00, -187500.02, -187500.02, -187500.02, 0
80, -187500.02, -120362.82, 187500.00, -187500.02, 187500.00, -187500.02, -187500.02, -187500.02, 0
81, -187500.02, -118581.07, 187500.00, -187500.02, 187500.00, -187500.02, -187500.02, -187500.02, 0
82, -187500.02, -117952.14, 187500.00, -187500.02, 187500.00, -187500.02, -187500.02, -187500.02, 0
83, -187500.02, -119212.16, 187500.00, -187500.02, 187500.00, -187500.02, -187500.02, -187500.02, 0
84, -187500.02, -120451.83, 187500.00, -187500.02, 187500.00, -187500.02, -187500.02, -187500.02, 0
85, -187500.02, -118909.17, 187500.00, -187500.02, 187500.00, -187500.02, -187500.02, -187500.02, 0
86, -187500.02, -117910.41, 187500.00, -187500.02, 187500.00, -187500.02, -187500.02, -187500.02, 0
87, -187500.02, -118898.60, 187500.00, -187500.02, 187500.00, -187500.02, -187500.02, -187500.02, 0
88, -187500.02, -120434.99, 187500.00, -187500.02, 187500.00, -187500.02, -187500.02, -187500.02, 0
89, -187500.02, -119273.17, 187500.00, -187500.02, 187500.00, -187500.02, -187500.02, -187500.02, 0
90, -187500.02, -117929.68, 187500.00, -187500.02, 187500.00, -187500.02, -187500.02, -187500.02, 0
91, -187500.02, -118606.27, 187500.00, -187500.02, 187500.00, -187500.02, -187500.02, -187500.02, 0
92, -187500.02, -120300.26, 187500.00, -187500.02, 187500.00, -187500.02, -187500.02, -187500.02, 0
93, -187500.02, -119651.72, 187500.00, -187500.02, 187500.00, -187500.02, -187500.02, -187500.02, 0
94, -187500.02, -118024.80, 187500.00, -187500.02, 187500.00, -187500.02, -187500.02, -187500.02, 0
95, -187500.02, -118362.90, 187500.00, -187500.02, 187500.00, -187500.02, -187500.02, -187500.02, 0
96, -187500.02, -120071.71, 187500.00, -187500.02, 187500.00, -187500.02, -187500.02, -187500.02, 0
97, -187500.02, -119978.62, 187500.00, -187500.02, 187500.00, -187500.02, -187500.02, -187500.02, 0
98, -187500.02, -118179.03, 187500.00, -187500.02, 187500.00, -187500.02, -187500.02, -187500.02, 0
99, -187500.02, -118170.74, 187500.00, -187500.02, 187500.00, -187500.02, -187500.02, -187500.02, 0
100, -187500.02, -119773.88, 187500.00, -187500.02, 187500.00, -187500.02, -187500.02, -187500.02, 0
101, -187500.02, -120237.27, 187500.00, -187500.02, 187500.00, -187500.02, -187500.02, -187500.02, 0
102, -187500.02, -118407.34, 187500.00, -187500.02, 187500.00, -187500.02, -187500.02, -187500.02, 0
103, -187500.02, -118037.16, 187500.00, -187500.02, 187500.00, -187500.02, -187500.02, -187500.02, 0
104, -187500.02, -119457.71, 187500.00, -187500.02, 187500.00, -187500.02, -187500.02, -187500.02, 0
105, -187500.02, -120425.72, 187500.00, -187500.02, 187500.00, -187500.02, -187500.02, -187500.02, 0
106, -187500.02, -118708.34, 187500.00, -187500.02, 187500.00, -187500.02, -187500.02, -187500.02, 0
107, -187500.02, -117962.69, 187500.00, -187500.02, 187500.00, -187500.02, -187500.02, -187500.02, 0
108, -187500.02, -119134.44, 187500.00, -187500.02, 187500.00, -187500.02, -187500.02, -187500.02, 0
109, -187500.02, -120487.56, 187500.00, -187500.02, 187500.00, -187500.02, -187500.02, -187500.02, 0
110, -187500.02, -119054.23, 187500.00, -187500.02, 187500.00, -187500.02, -187500.02, -187500.02, 0
111, -187500.02, -117937.10, 187500.00, -187500.02, 187500.00, -187500.02, -187500.02, -187500.02, 0
112, -187500.02, -118818.49, 187500.00, -187500.02, 187500.00, -187500.02, -187500.02, -187500.02, 0
113, -187500.02, -120421.88, 187500.00, -187500.02, 187500.00, -187500.02, -187500.02, -187500.02, 0
114, -187500.02, -119422.53, 187500.00, -187500.02, 187500.00, -187500.02, -187500.02, -187500.02, 0
115, -187500.02, -117981.06, 187500.00, -187500.02, 187500.00, -187500.02, -187500.02, -187500.02, 0
116, -187500.02, -118549.73, 187500.00, -187500.02, 187500.00, -187500.02, -187500.02, -187500.02, 0
117, -187500.02, -120265.77, 187500.00, -187500.02, 187500.00, -187500.02, -187500.02, -187500.02, 0
118, -187500.02, -119796.54, 187500.00, -187500.02, 187500.00, -187500.02, -187500.02, -187500.02, 0
119, -187500.02, -118095.66, 187500.00, -187500.02, 187500.00, -187500.02, -187500.02, -187500.02, 0
120, -187500.02, -118332.16, 187500.00, -187500.02, 187500.00, -187500.02, -187500.02, -187500.02, 0
121, -187500.02, -120019.16, 187500.00, -187500.02, 187500.00, -187500.02, -187500.02, -187500.02, 0
122, -187500.02, -120106.96, 187500.00, -187500.02, 187500.00, -187500.02, -187500.02, -187500.02, 0
123, -187500.02, -118275.62, 187500.00, -187500.02, 187500.00, -187500.02, -187500.02, -187500.02, 0
124, -187500.02, -118148.16, 187500.00, -187500.02, 187500.00, -187500.02, -187500.02, -187500.02, 0
125, -187500.02, -119694.23, 187500.00, -187500.02, 187500.00, -187500.02, -187500.02, -187500.02, 0
126, -187500.02, -120328.58, 187500.00, -187500.02, 187500.00, -187500.02, -187500.02, -187500.02, 0
127, -187500.02, -118522.52, 187500.00, -187500.02, 187500.00, -187500.02, -187500.02, -187500.02, 0
128, -187500.02, -118024.72, 187500.00, -187500.02, 187500.00, -187500.02, -187500.02, -187500.02, 0
129, -187500.02, -119376.46, 187500.00, -187500.02, 187500.00, -187500.02, -187500.02, -187500.02, 0
130, -187500.02, -120484.66, 187500.00, -187500.02, 187500.00, -187500.02, -187500.02, -187500.02, 0
131, -187500.02, -118841.96, 187500.00, -187500.02, 187500.00, -187500.02, -187500.02, -187500.02, 0
132, -187500.02, -117961.23, 187500.00, -187500.02, 187500.00, -187500.02, -187500.02, -187500.02, 0
133, -187500.02, -119037.43, 187500.00, -187500.02, 187500.00, -187500.02, -187500.02, -187500.02, 0
134, -187500.02, -120491.92, 187500.00, -187500.02, 187500.00, -187500.02, -187500.02, -187500.02, 0
135, -187500.02, -119191.01, 187500.00, -187500.02, 187500.00, -187500.02, -187500.02, -187500.02, 0
136, -187500.02, -117963.32, 187500.00, -187500.02, 187500.00, -187500.02, -187500.02, -187500.02, 0
137, -187500.02, -118747.69, 187500.00, -187500.02, 187500.00, -187500.02, -187500.02, -187500.02, 0
138, -187500.02, -120403.16, 187500.00, -187500.02, 187500.00, -187500.02, -187500.02, -187500.02, 0
139, -187500.02, -119567.57, 187500.00, -187500.02, 187500.00, -187500.02, -187500.02, -187500.02, 0
140, -187500.02, -118021.92, 187500.00, -187500.02, 187500.00, -187500.02, -187500.02, -187500.02, 0
141, -187500.02, -118453.67, 187500.00, -187500.02, 187500.00, -187500.02, -187500.02, -187500.02, 0
142, -187500.02, -120145.41, 187500.00, -187500.02, 187500.00, -187500.02, -187500.02, -187500.02, 0
143, -187500.02, -119831.32, 187500.00, -187500.02, 187500.00, -187500.02, -187500.02, -187500.02, 0
144, -187500.02, -118047.85, 187500.00, -187500.02, 187500.00, -187500.02, -187500.02, -187500.02, 0
145, -187500.02, -118135.47, 187500.00, -187500.02, 187500.00, -187500.02, -187500.02, -187500.02, 0
146, -187500.02, -119761.02, 187500.00, -187500.02, 187500.00, -187500.02, -187500.02, -187500.02, 0
147, -187500.02, -120007.41, 187500.00, -187500.02, 187500.00, -187500.02, -187500.02, -187500.02, 0
148, -187500.02, -118142.06, 187500.00, -187500.02, 187500.00, -187500.02, -187500.02, -187500.02, 0
149, -187500.02, -117864.68, 187500.00, -187500.02, 187500.00, -187500.02, -187500.02, -187500.02, 0
150, -187500.02, -119333.86, 187500.00, -187500.02, 187500.00, -187500.02, -187500.02, -187500.02, 0
151, -187500.02, -120100.79, 187500.00, -187500.02, 187500.00, -187500.02, -187500.02, -187500.02, 0
152, -187500.02, -118305.32, 187500.00, -187500.02, 187500.00, -187500.02, -187500.02, -187500.02, 0
153, -187500.02, -117674.04, 187500.00, -187500.02, 187500.00, -187500.02, -187500.02, -187500.02, 0
154, -187500.02, -118923.16, 187500.00, -187500.02, 187500.00, -187500.02, -187500.02, -187500.02, 0
155, -187500.02, -120141.61, 187500.00, -187500.02, 187500.00, -187500.02, -187500.02, -187500.02, 0
156, -187500.02, -118590.53, 187500.00, -187500.02, 187500.00, -187500.02, -187500.02, -187500.02, 0
157, -187500.02, -117601.04, 187500.00, -187500.02, 187500.00, -187500.02, -187500.02, -187500.02, 0
158, -187500.02, -118580.72, 187500.00, -187500.02, 187500.00, -187500.02, -187500.02, -187500.02, 0
159, -187500.02, -120106.63, 187500.00, -187500.02, 187500.00, -187500.02, -187500.02, -187500.02, 0
160, -187500.02, -118947.84, 187500.00, -187500.02, 187500.00, -187500.02, -187500.02, -187500.02, 0
161, -187500.02, -117634.12, 187500.00, -187500.02, 187500.00, -187500.02, -187500.02, -187500.02, 0
162, -187500.02, -118328.66, 187500.00, -187500.02, 187500.00, -187500.02, -187500.02, -187500.02, 0
163, -187500.02, -120018.49, 187500.00, -187500.02, 187500.00, -187500.02, -187500.02, -187500.02, 0
164, -187500.02, -119369.71, 187500.00, -187500.02, 187500.00, -187500.02, -187500.02, -187500.02, 0
165, -187500.02, -117770.53, 187500.00, -187500.02, 187500.00, -187500.02, -187500.02, -187500.02, 0
166, -187500.02, -118133.15, 187500.00, -187500.02, 187500.00, -187500.02, -187500.02, -187500.02, 0
167, -187500.02, -119841.94, 187500.00, -187500.02, 187500.00, -187500.02, -187500.02, -187500.02, 0
168, -187500.02, -119741.69, 187500.00, -187500.02, 187500.00, -187500.02, -187500.02, -187500.02, 0
169, -187500.02, -117975.23, 187500.00, -187500.02, 187500.00, -187500.02, -187500.02, -187500.02, 0
170, -187500.02, -117988.28, 187500.00, -187500.02, 187500.00, -187500.02, -187500.02, -187500.02, 0
171, -187500.02, -119594.26, 187500.00, -187500.02, 187500.00, -187500.02, -187500.02, -187500.02, 0
172, -187500.02, -120054.63, 187500.00, -187500.02, 187500.00, -187500.02, -187500.02, -187500.02, 0
173, -187500.02, -118243.98, 187500.00, -187500.02, 187500.00, -187500.02, -187500.02, -187500.02, 0
174, -187500.02, -117889.11, 187500.00, -187500.02, 187500.00, -187500.02, -187500.02, -187500.02, 0
175, -187500.02, -119314.32, 187500.00, -187500.02, 187500.00, -187500.02, -187500.02, -187500.02, 0
176, -187500.02, -120263.53, 187500.00, -187500.02, 187500.00, -187500.02, -187500.02, -187500.02, 0
177, -187500.02, -118565.54, 187500.00, -187500.02, 187500.00, -187500.02, -187500.02, -187500.02, 0
178, -187500.02, -117839.47, 187500.00, -187500.02, 187500.00, -187500.02, -187500.02, -187500.02, 0
179, -187500.02, -119012.51, 187500.00, -187500.02, 187500.00, -187500.02, -187500.02, -187500.02, 0
180, -187500.02, -120340.05, 187500.00, -187500.02, 187500.00, -187500.02, -187500.02, -187500.02, 0
181, -187500.02, -118919.77, 187500.00, -187500.02, 187500.00, -187500.02, -187500.02, -187500.02, 0
182, -187500.02, -117822.32, 187500.00, -187500.02, 187500.00, -187500.02, -187500.02, -187500.02, 0
183, -187500.02, -118707.48, 187500.00, -187500.02, 187500.00, -187500.02, -187500.02, -187500.02, 0
184, -187500.02, -120293.55, 187500.00, -187500.02, 187500.00, -187500.02, -187500.02, -187500.02, 0
185, -187500.02, -119293.47, 187500.00, -187500.02, 187500.00, -187500.02, -187500.02, -187500.02, 0
186, -187500.02, -117872.03, 187500.00, -187500.02, 187500.00, -187500.02, -187500.02, -187500.02, 0
187, -187500.02, -118441.42, 187500.00, -187500.02, 187500.00, -187500.02, -187500.02, -187500.02, 0
188, -187500.02, -120137.49, 187500.00, -187500.02, 187500.00, -187500.02, -187500.02, -187500.02, 0
189, -187500.02, -119656.46, 187500.00, -187500.02, 187500.00, -187500.02, -187500.02, -187500.02, 0
190, -187500.02, -117984.55, 187500.00, -187500.02, 187500.00, -187500.02, -187500.02, -187500.02, 0
191, -187500.02, -118229.13, 187500.00, -187500.02, 187500.00, -187500.02, -187500.02, -187500.02, 0
192, -187500.02, -119896.41, 187500.00, -187500.02, 187500.00, -187500.02, -187500.02, -187500.02, 0
193, -187500.02, -119970.39, 187500.00, -187500.02, 187500.00, -187500.02, -187500.02, -187500.02, 0
194, -187500.02, -118160.08, 187500.00, -187500.02, 187500.00, -187500.02, -187500.02, -187500.02, 0
195, -187500.02, -118042.15, 187500.00, -187500.02, 187500.00, -187500.02, -187500.02, -187500.02, 0
196, -187500.02, -119593.66, 187500.00, -187500.02, 187500.00, -187500.02, -187500.02, -187500.02, 0
197, -187500.02, -120208.10, 187500.00, -187500.02, 187500.00, -187500.02, -187500.02, -187500.02, 0
198, -187500.02, -118414.35, 187500.00, -187500.02, 187500.00, -187500.02, -187500.02, -187500.02, 0
199, -187500.02, -117941.73, 187500.00, -187500.02, 187500.00, -187500.02, -187500.02, -187500.02, 0
200, -187500.02, -119277.09, 187500.00, -187500.02, 187500.00, -187500.02, -187500.02, -187500.02, 0
201, -187500.02, -120350.44, 187500.00, -187500.02, 187500.00, -187500.02, -187500.02, -187500.02, 0
202, -187500.02, -118722.96, 187500.00, -187500.02, 187500.00, -187500.02, -187500.02, -187500.02, 0
203, -187500.02, -117872.50, 187500.00, -187500.02, 187500.00, -187500.02, -187500.02, -187500.02, 0
204, -187500.02, -118948.41, 187500.00, -187500.02, 187500.00, -187500.02, -187500.02, -187500.02, 0
205, -187500.02, -120377.82, 187500.00, -187500.02, 187500.00, -187500.02, -187500.02, -187500.02, 0
206, -187500.02, -119080.19, 187500.00, -187500.02, 187500.00, -187500.02, -187500.02, -187500.02, 0
207, -187500.02, -117877.17, 187500.00, -187500.02, 187500.00, -187500.02, -187500.02, -187500.02, 0
208, -187500.02, -118656.06, 187500.00, -187500.02, 187500.00, -187500.02, -187500.02, -187500.02, 0
209, -187500.02, -120282.09, 187500.00, -187500.02, 187500.00, -187500.02, -187500.02, -187500.02, 0
210, -187500.02, -119436.81, 187500.00, -187500.02, 187500.00, -187500.02, -187500.02, -187500.02, 0
211, -187500.02, -117922.99, 187500.00, -187500.02, 187500.00, -187500.02, -187500.02, -187500.02, 0
212, -187500.02, -118386.79, 187500.00, -187500.02, 187500.00, -187500.02, -187500.02, -187500.02, 0
213, -187500.02, -120079.96, 187500.00, -187500.02, 187500.00, -187500.02, -187500.02, -187500.02, 0
214, -187500.02, -119777.48, 187500.00, -187500.02, 187500.00, -187500.02, -187500.02, -187500.02, 0
215, -187500.02, -118051.63, 187500.00, -187500.02, 187500.00, -187500.02, -187500.02, -187500.02, 0
216, -187500.02, -118179.23, 187500.00, -187500.02, 187500.00, -187500.02, -187500.02, -187500.02, 0
217, -187500.02, -119810.24, 187500.00, -187500.02, 187500.00, -187500.02, -187500.02, -187500.02, 0
218, -187500.02, -120061.88, 187500.00, -187500.02, 187500.00, -187500.02, -187500.02, -187500.02, 0
219, -187500.02, -118248.16, 187500.00, -187500.02, 187500.00, -187500.02, -187500.02, -187500.02, 0
220, -187500.02, -118010.37, 187500.00, -187500.02, 187500.00, -187500.02, -187500.02, -187500.02, 0
221, -187500.02, -119485.85, 187500.00, -187500.02, 187500.00, -187500.02, -187500.02, -187500.02, 0
222, -187500.02, -120256.92, 187500.00, -187500.02, 187500.00, -187500.02, -187500.02, -187500.02, 0
223, -187500.02, -118498.13, 187500.00, -187500.02, 187500.00, -187500.02, -187500.02, -187500.02, 0
224, -187500.02, -117899.26, 187500.00, -187500.02, 187500.00, -187500.02, -187500.02, -187500.02, 0
225, -187500.02, -119149.23, 187500.00, -187500.02, 187500.00, -187500.02, -187500.02, -187500.02, 0
226, -187500.02, -120350.82, 187500.00, -187500.02, 187500.00, -187500.02, -187500.02, -187500.02, 0
227, -187500.02, -118820.62, 187500.00, -187500.02, 187500.00, -187500.02, -187500.02, -187500.02, 0
228, -187500.02, -117850.09, 187500.00, -187500.02, 187500.00, -187500.02, -187500.02, -187500.02, 0
229, -187500.02, -118824.93, 187500.00, -187500.02, 187500.00, -187500.02, -187500.02, -187500.02, 0
230, -187500.02, -120325.54, 187500.00, -187500.02, 187500.00, -187500.02, -187500.02, -187500.02, 0
231, -187500.02, -119165.13, 187500.00, -187500.02, 187500.00, -187500.02, -187500.02, -187500.02, 0
232, -187500.02, -117856.95, 187500.00, -187500.02, 187500.00, -187500.02, -187500.02, -187500.02, 0
233, -187500.02, -118533.73, 187500.00, -187500.02, 187500.00, -187500.02, -187500.02, -187500.02, 0
234, -187500.02, -120189.55, 187500.00, -187500.02, 187500.00, -187500.02, -187500.02, -187500.02, 0
235, -187500.02, -119516.49, 187500.00, -187500.02, 187500.00, -187500.02, -187500.02, -187500.02, 0
236, -187500.02, -117927.66, 187500.00, -187500.02, 187500.00, -187500.02, -187500.02, -187500.02, 0
237, -187500.02, -118281.88, 187500.00, -187500.02, 187500.00, -187500.02, -187500.02, -187500.02, 0
238, -187500.02, -119964.83, 187500.00, -187500.02, 187500.00, -187500.02, -187500.02, -187500.02, 0
239, -187500.02, -119853.89, 187500.00, -187500.02, 187500.00, -187500.02, -187500.02, -187500.02, 0
240, -187500.02, -118085.49, 187500.00, -187500.02, 187500.00, -187500.02, -187500.02, -187500.02, 0
241, -187500.02, -118091.95, 187500.00, -187500.02, 187500.00, -187500.02, -187500.02, -187500.02, 0
242, -187500.02, -119677.18, 187500.00, -187500.02, 187500.00, -187500.02, -187500.02, -187500.02, 0
243, -187500.02, -120106.27, 187500.00, -187500.02, 187500.00, -187500.02, -187500.02, -187500.02, 0
244, -187500.02, -118294.62, 187500.00, -187500.02, 187500.00, -187500.02, -187500.02, -187500.02, 0
245, -187500.02, -117941.52, 187500.00, -187500.02, 187500.00, -187500.02, -187500.02, -187500.02, 0
246, -187500.02, -119349.26, 187500.00, -187500.02, 187500.00, -187500.02, -187500.02, -187500.02, 0
247, -187500.02, -120276.79, 187500.00, -187500.02, 187500.00, -187500.02, -187500.02, -187500.02, 0
248, -187500.02, -118574.59, 187500.00, -187500.02, 187500.00, -187500.02, -187500.02, -187500.02, 0
249, -187500.02, -117857.19, 187500.00, -187500.02, 187500.00, -187500.02, -187500.02, -187500.02, 0
250, -187500.02, -119032.06, 187500.00, -187500.02, 187500.00, -187500.02, -187500.02, -187500.02, 0
251, -187500.02, -120348.43, 187500.00, -187500.02, 187500.00, -187500.02, -187500.02, -187500.02, 0
252, -187500.02, -118914.65, 187500.00, -187500.02, 187500.00, -187500.02, -187500.02, -187500.02, 0
253, -187500.02, -117816.33, 187500.00, -187500.02, 187500.00, -187500.02, -187500.02, -187500.02, 0
254, -187500.02, -118706.96, 187500.00, -187500.02, 187500.00, -187500.02, -187500.02, -187500.02, 0
255, -187500.02, -120291.38, 187500.00, -187500.02, 187500.00, -187500.02, -187500.02, -187500.02, 0
0, -187500.02, -119272.23, 187500.00, -187500.02, 187500.00, -187500.02, -187500.02, -187500.02, 0
1, -187500.02, -117851.58, 187500.00, -187500.02, 187500.00, -187500.02, -187500.02, -187500.02, 0
2, -187500.02, -118432.95, 187500.00, -187500.02, 187500.00, -187500.02, -187500.02, -187500.02, 0
3, -187500.02, -120129.47, 187500.00, -187500.02, 187500.00, -187500.02, -187500.02, -187500.02, 0
4, -187500.02, -119632.55, 187500.00, -187500.02, 187500.00, -187500.02, -187500.02, -187500.02, 0
5, -187500.02, -117961.57, 187500.00, -187500.02, 187500.00, -187500.02, -187500.02, -187500.02, 0
6, -187500.02, -118202.59, 187500.00, -187500.02, 187500.00, -187500.02, -187500.02, -187500.02, 0
7, -187500.02, -119879.40, 187500.00, -187500.02, 187500.00, -187500.02, -187500.02, -187500.02, 0
8, -187500.02, -119947.30, 187500.00, -187500.02, 187500.00, -187500.02, -187500.02, -187500.02, 0
9, -187500.02, -118142.40, 187500.00, -187500.02, 187500.00, -187500.02, -187500.02, -187500.02, 0
10, -187500.02, -118033.73, 187500.00, -187500.02, 187500.00, -187500.02, -187500.02, -187500.02, 0
11, -187500.02, -119578.19, 187500.00, -187500.02, 187500.00, -187500.02, -187500.02, -187500.02, 0
12, -187500.02, -120188.09, 187500.00, -187500.02, 187500.00, -187500.02, -187500.02, -187500.02, 0
13, -187500.02, -118380.60, 187500.00, -187500.02, 187500.00, -187500.02, -187500.02, -187500.02, 0
14, -187500.02, -117900.40, 187500.00, -187500.02, 187500.00, -187500.02, -187500.02, -187500.02, 0
15, -187500.02, -119243.36, 187500.00, -187500.02, 187500.00, -187500.02, -187500.02, -187500.02, 0
16, -187500.02, -120310.02, 187500.00, -187500.02, 187500.00, -187500.02, -187500.02, -187500.02, 0
17, -187500.02, -118673.55, 187500.00, -187500.02, 187500.00, -187500.02, -187500.02, -187500.02, 0
18, -187500.02, -117833.59, 187500.00, -187500.02, 187500.00, -187500.02, -187500.02, -187500.02, 0
19, -187500.02, -118914.00, 187500.00, -187500.02, 187500.00, -187500.02, -187500.02, -187500.02, 0
20, -187500.02, -120335.10, 187500.00, -187500.02, 187500.00, -187500.02, -187500.02, -187500.02, 0
21, -187500.02, -119026.12, 187500.00, -187500.02, 187500.00, -187500.02, -187500.02, -187500.02, 0
22, -187500.02, -117822.01, 187500.00, -187500.02, 187500.00, -187500.02, -187500.02, -187500.02, 0
23, -187500.02, -118616.37, 187500.00, -187500.02, 187500.00, -187500.02, -187500.02, -187500.02, 0
24, -187500.02, -120251.94, 187500.00, -187500.02, 187500.00, -187500.02, -187500.02, -187500.02, 0
25, -187500.02, -119388.98, 187500.00, -187500.02, 187500.00, -187500.02, -187500.02, -187500.02, 0
26, -187500.02, -117874.80, 187500.00, -187500.02, 187500.00, -187500.02, -187500.02, -187500.02, 0
27, -187500.02, -118350.83, 187500.00, -187500.02, 187500.00, -187500.02, -187500.02, -187500.02, 0
28, -187500.02, -120056.52, 187500.00, -187500.02, 187500.00, -187500.02, -187500.02, -187500.02, 0
29, -187500.02, -119740.59, 187500.00, -187500.02, 187500.00, -187500.02, -187500.02, -187500.02, 0
30, -187500.02, -118011.17, 187500.00, -187500.02, 187500.00, -187500.02, -187500.02, -187500.02, 0
31, -187500.02, -118142.82, 187500.00, -187500.02, 187500.00, -187500.02, -187500.02, -187500.02, 0
32, -187500.02, -119791.09, 187500.00, -187500.02, 187500.00, -187500.02, -187500.02, -187500.02, 0
33, -187500.02, -120039.16, 187500.00, -187500.02, 187500.00, -187500.02, -187500.02, -187500.02, 0
34, -187500.02, -118205.56, 187500.00, -187500.02, 187500.00, -187500.02, -187500.02, -187500.02, 0
35, -187500.02, -117975.14, 187500.00, -187500.02, 187500.00, -187500.02, -187500.02, -187500.02, 0
36, -187500.02, -119469.16, 187500.00, -187500.02, 187500.00, -187500.02, -187500.02, -187500.02, 0
37, -187500.02, -120239.06, 187500.00, -187500.02, 187500.00, -187500.02, -187500.02, -187500.02, 0
38, -187500.02, -118460.04, 187500.00, -187500.02, 187500.00, -187500.02, -187500.02, -187500.02, 0
39, -187500.02, -117862.33, 187500.00, -187500.02, 187500.00, -187500.02, -187500.02, -187500.02, 0
40, -187500.02, -119139.20, 187500.00, -187500.02, 187500.00, -187500.02, -187500.02, -187500.02, 0
41, -187500.02, -120349.59, 187500.00, -187500.02, 187500.00, -187500.02, -187500.02, -187500.02, 0
42, -187500.02, -118799.85, 187500.00, -187500.02, 187500.00, -187500.02, -187500.02, -187500.02, 0
43, -187500.02, -117827.93, 187500.00, -187500.02, 187500.00, -187500.02, -187500.02, -187500.02, 0
44, -187500.02, -118820.17, 187500.00, -187500.02, 187500.00, -187500.02, -187500.02, -187500.02, 0
45, -187500.02, -120338.91, 187500.00, -187500.02, 187500.00, -187500.02, -187500.02, -187500.02, 0
46, -187500.02, -119166.91, 187500.00, -187500.02, 187500.00, -187500.02, -187500.02, -187500.02, 0
47, -187500.02, -117854.24, 187500.00, -187500.02, 187500.00, -187500.02, -187500.02, -187500.02, 0
48, -187500.02, -118542.98, 187500.00, -187500.02, 187500.00, -187500.02, -187500.02, -187500.02, 0
49, -187500.02, -120221.05, 187500.00, -187500.02, 187500.00, -187500.02, -187500.02, -187500.02, 0
50, -187500.02, -119531.45, 187500.00, -187500.02, 187500.00, -187500.02, -187500.02, -187500.02, 0
51, -187500.02, -117931.24, 187500.00, -187500.02, 187500.00, -187500.02, -187500.02, -187500.02, 0
52, -187500.02, -118302.66, 187500.00, -187500.02, 187500.00, -187500.02, -187500.02, -187500.02, 0
53, -187500.02, -120008.23, 187500.00, -187500.02, 187500.00, -187500.02, -187500.02, -187500.02, 0
54, -187500.02, -119874.88, 187500.00, -187500.02, 187500.00, -187500.02, -187500.02, -187500.02, 0
55, -187500.02, -118091.77, 187500.00, -187500.02, 187500.00, -187500.02, -187500.02, -187500.02, 0
56, -187500.02, -118114.30, 187500.00, -187500.02, 187500.00, -187500.02, -187500.02, -187500.02, 0
57, -187500.02, -119723.36, 187500.00, -187500.02, 187500.00, -187500.02, -187500.02, -187500.02, 0
58, -187500.02, -120145.02, 187500.00, -187500.02, 187500.00, -187500.02, -187500.02, -187500.02, 0
59, -187500.02, -118310.15, 187500.00, -187500.02, 187500.00, -187500.02, -187500.02, -187500.02, 0
60, -187500.02, -117961.57, 187500.00, -187500.02, 187500.00, -187500.02, -187500.02, -187500.02, 0
61, -187500.02, -119388.27, 187500.00, -187500.02, 187500.00, -187500.02, -187500.02, -187500.02, 0
62, -187500.02, -120316.20, 187500.00, -187500.02, 187500.00, -187500.02, -187500.02, -187500.02, 0
63, -187500.02, -118596.02, 187500.00, -187500.02, 187500.00, -187500.02, -187500.02, -187500.02, 0
64, -187500.02, -117879.16, 187500.00, -187500.02, 187500.00, -187500.02, -187500.02, -187500.02, 0
65, -187500.02, -119060.25, 187500.00, -187500.02, 187500.00, -187500.02, -187500.02, -187500.02, 0
66, -187500.02, -120380.16, 187500.00, -187500.02, 187500.00, -187500.02, -187500.02, -187500.02, 0
67, -187500.02, -118938.26, 187500.00, -187500.02, 187500.00, -187500.02, -187500.02, -187500.02, 0
68, -187500.02, -117853.57, 187500.00, -187500.02, 187500.00, -187500.02, -187500.02, -187500.02, 0
69, -187500.02, -118752.27, 187500.00, -187500.02, 187500.00, -187500.02, -187500.02, -187500.02, 0
70, -187500.02, -120337.02, 187500.00, -187500.02, 187500.00, -187500.02, -187500.02, -187500.02, 0
71, -187500.02, -119311.80, 187500.00, -187500.02, 187500.00, -187500.02, -187500.02, -187500.02, 0
72, -187500.02, -117893.20, 187500.00, -187500.02, 187500.00, -187500.02, -187500.02, -187500.02, 0
73, -187500.02, -118481.25, 187500.00, -187500.02, 187500.00, -187500.02, -187500.02, -187500.02, 0
74, -187500.02, -120184.68, 187500.00, -187500.02, 187500.00, -187500.02, -187500.02, -187500.02, 0
75, -187500.02, -119676.24, 187500.00, -187500.02, 187500.00, -187500.02, -187500.02, -187500.02, 0
76, -187500.02, -118008.18, 187500.00, -187500.02, 187500.00, -187500.02, -187500.02, -187500.02, 0
77, -187500.02, -118261.66, 187500.00, -187500.02, 187500.00, -187500.02, -187500.02, -187500.02, 0
78, -187500.02, -119943.86, 187500.00, -187500.02, 187500.00, -187500.02, -187500.02, -187500.02, 0
79, -187500.02, -120000.08, 187500.00, -187500.02, 187500.00, -187500.02, -187500.02, -187500.02, 0
80, -187500.02, -118178.83, 187500.00, -187500.02, 187500.00, -187500.02, -187500.02, -187500.02, 0
81, -187500.02, -118077.69, 187500.00, -187500.02, 187500.00, -187500.02, -187500.02, -187500.02, 0
82, -187500.02, -119636.79, 187500.00, -187500.02, 187500.00, -187500.02, -187500.02, -187500.02, 0
83, -187500.02, -120232.27, 187500.00, -187500.02, 187500.00, -187500.02, -187500.02, -187500.02, 0
84, -187500.02, -118415.65, 187500.00, -187500.02, 187500.00, -187500.02, -187500.02, -187500.02, 0
85, -187500.02, -117947.60, 187500.00, -187500.02, 187500.00, -187500.02, -187500.02, -187500.02, 0
86, -187500.02, -119295.84, 187500.00, -187500.02, 187500.00, -187500.02, -187500.02, -187500.02, 0
87, -187500.02, -120362.77, 187500.00, -187500.02, 187500.00, -187500.02, -187500.02, -187500.02, 0
88, -187500.02, -118719.66, 187500.00, -187500.02, 187500.00, -187500.02, -187500.02, -187500.02, 0
89, -187500.02, -117875.90, 187500.00, -187500.02, 187500.00, -187500.02, -187500.02, -187500.02, 0
90, -187500.02, -118964.77, 187500.00, -187500.02, 187500.00, -187500.02, -187500.02, -187500.02, 0
91, -187500.02, -120386.78, 187500.00, -187500.02, 187500.00, -187500.02, -187500.02, -187500.02, 0
92, -187500.02, -119067.16, 187500.00, -187500.02, 187500.00, -187500.02, -187500.02, -187500.02, 0
93, -187500.02, -117869.08, 187500.00, -187500.02, 187500.00, -187500.02, -187500.02, -187500.02, 0
94, -187500.02, -118667.66, 187500.00, -187500.02, 187500.00, -187500.02, -187500.02, -187500.02, 0
95, -187500.02, -120300.75, 187500.00, -187500.02, 187500.00, -187500.02, -187500.02, -187500.02, 0
96, -187500.02, -119435.56, 187500.00, -187500.02, 187500.00, -187500.02, -187500.02, -187500.02, 0
97, -187500.02, -117922.03, 187500.00, -187500.02, 187500.00, -187500.02, -187500.02, -187500.02, 0
98, -187500.02, -118400.74, 187500.00, -187500.02, 187500.00, -187500.02, -187500.02, -187500.02, 0
99, -187500.02, -120101.41, 187500.00, -187500.02, 187500.00, -187500.02, -187500.02, -187500.02, 0
100, -187500.02, -119770.50, 187500.00, -187500.02, 187500.00, -187500.02, -187500.02, -187500.02, 0
101, -187500.02, -118039.38, 187500.00, -187500.02, 187500.00, -187500.02, -187500.02, -187500.02, 0
102, -187500.02, -118185.91, 187500.00, -187500.02, 187500.00, -187500.02, -187500.02, -187500.02, 0
103, -187500.02, -119840.39, 187500.00, -187500.02, 187500.00, -187500.02, -187500.02, -187500.02, 0
104, -187500.02, -120071.38, 187500.00, -187500.02, 187500.00, -187500.02, -187500.02, -187500.02, 0
105, -187500.02, -118245.84, 187500.00, -187500.02, 187500.00, -187500.02, -187500.02, -187500.02, 0
106, -187500.02, -118030.82, 187500.00, -187500.02, 187500.00, -187500.02, -187500.02, -187500.02, 0
107, -187500.02, -119526.98, 187500.00, -187500.02, 187500.00, -187500.02, -187500.02, -187500.02, 0
108, -187500.02, -120284.14, 187500.00, -187500.02, 187500.00, -187500.02, -187500.02, -187500.02, 0
109, -187500.02, -118511.45, 187500.00, -187500.02, 187500.00, -187500.02, -187500.02, -187500.02, 0
110, -187500.02, -117920.05, 187500.00, -187500.02, 187500.00, -187500.02, -187500.02, -187500.02, 0
111, -187500.02, -119188.02, 187500.00, -187500.02, 187500.00, -187500.02, -187500.02, -187500.02, 0
112, -187500.02, -120381.15, 187500.00, -187500.02, 187500.00, -187500.02, -187500.02, -187500.02, 0
113, -187500.02, -118830.63, 187500.00, -187500.02, 187500.00, -187500.02, -187500.02, -187500.02, 0
114, -187500.02, -117873.48, 187500.00, -187500.02, 187500.00, -187500.02, -187500.02, -187500.02, 0
115, -187500.02, -118865.21, 187500.00, -187500.02, 187500.00, -187500.02, -187500.02, -187500.02, 0
116, -187500.02, -120365.28, 187500.00, -187500.02, 187500.00, -187500.02, -187500.02, -187500.02, 0
117, -187500.02, -119177.24, 187500.00, -187500.02, 187500.00, -187500.02, -187500.02, -187500.02, 0
118, -187500.02, -117869.17, 187500.00, -187500.02, 187500.00, -187500.02, -187500.02, -187500.02, 0
119, -187500.02, -118561.96, 187500.00, -187500.02, 187500.00, -187500.02, -187500.02, -187500.02, 0
120, -187500.02, -120234.92, 187500.00, -187500.02, 187500.00, -187500.02, -187500.02, -187500.02, 0
121, -187500.02, -119538.45, 187500.00, -187500.02, 187500.00, -187500.02, -187500.02, -187500.02, 0
122, -187500.02, -117944.92, 187500.00, -187500.02, 187500.00, -187500.02, -187500.02, -187500.02, 0
123, -187500.02, -118310.93, 187500.00, -187500.02, 187500.00, -187500.02, -187500.02, -187500.02, 0
124, -187500.02, -120013.09, 187500.00, -187500.02, 187500.00, -187500.02, -187500.02, -187500.02, 0
125, -187500.02, -119869.49, 187500.00, -187500.02, 187500.00, -187500.02, -187500.02, -187500.02, 0
126, -187500.02, -118094.48, 187500.00, -187500.02, 187500.00, -187500.02, -187500.02, -187500.02, 0
127, -187500.02, -118119.51, 187500.00, -187500.02, 187500.00, -187500.02, -187500.02, -187500.02, 0
128, -187500.02, -119728.77, 187500.00, -187500.02, 187500.00, -187500.02, -187500.02, -187500.02, 0
129, -187500.02, -120136.76, 187500.00, -187500.02, 187500.00, -187500.02, -187500.02, -187500.02, 0
130, -187500.02, -118312.70, 187500.00, -187500.02, 187500.00, -187500.02, -187500.02, -187500.02, 0
131, -187500.02, -117974.80, 187500.00, -187500.02, 187500.00, -187500.02, -187500.02, -187500.02, 0
132, -187500.02, -119400.49, 187500.00, -187500.02, 187500.00, -187500.02, -187500.02, -187500.02, 0
133, -187500.02, -120312.64, 187500.00, -187500.02, 187500.00, -187500.02, -187500.02, -187500.02, 0
134, -187500.02, -118599.05, 187500.00, -187500.02, 187500.00, -187500.02, -187500.02, -187500.02, 0
135, -187500.02, -117889.34, 187500.00, -187500.02, 187500.00, -187500.02, -187500.02, -187500.02, 0
136, -187500.02, -119069.84, 187500.00, -187500.02, 187500.00, -187500.02, -187500.02, -187500.02, 0
137, -187500.02, -120375.12, 187500.00, -187500.02, 187500.00, -187500.02, -187500.02, -187500.02, 0
138, -187500.02, -118929.34, 187500.00, -187500.02, 187500.00, -187500.02, -187500.02, -187500.02, 0
139, -187500.02, -117858.62, 187500.00, -187500.02, 187500.00, -187500.02, -187500.02, -187500.02, 0
140, -187500.02, -118758.14, 187500.00, -187500.02, 187500.00, -187500.02, -187500.02, -187500.02, 0
141, -187500.02, -120326.79, 187500.00, -187500.02, 187500.00, -187500.02, -187500.02, -187500.02, 0
142, -187500.02, -119294.41, 187500.00, -187500.02, 187500.00, -187500.02, -187500.02, -187500.02, 0
143, -187500.02, -117893.06, 187500.00, -187500.02, 187500.00, -187500.02, -187500.02, -187500.02, 0
144, -187500.02, -118475.84, 187500.00, -187500.02, 187500.00, -187500.02, -187500.02, -187500.02, 0
145, -187500.02, -120150.45, 187500.00, -187500.02, 187500.00, -187500.02, -187500.02, -187500.02, 0
146, -187500.02, -119641.35, 187500.00, -187500.02, 187500.00, -187500.02, -187500.02, -187500.02, 0
147, -187500.02, -117994.59, 187500.00, -187500.02, 187500.00, -187500.02, -187500.02, -187500.02, 0
148, -187500.02, -118251.70, 187500.00, -187500.02, 187500.00, -187500.02, -187500.02, -187500.02, 0
149, -187500.02, -119907.76, 187500.00, -187500.02, 187500.00, -187500.02, -187500.02, -187500.02, 0
150, -187500.02, -119947.93, 187500.00, -187500.02, 187500.00, -187500.02, -187500.02, -187500.02, 0
151, -187500.02, -118160.88, 187500.00, -187500.02, 187500.00, -187500.02, -187500.02, -187500.02, 0
152, -187500.02, -118067.86, 187500.00, -187500.02, 187500.00, -187500.02, -187500.02, -187500.02, 0
153, -187500.02, -119607.51, 187500.00, -187500.02, 187500.00, -187500.02, -187500.02, -187500.02, 0
154, -187500.02, -120184.30, 187500.00, -187500.02, 187500.00, -187500.02, -187500.02, -187500.02, 0
155, -187500.02, -118392.02, 187500.00, -187500.02, 187500.00, -187500.02, -187500.02, -187500.02, 0
156, -187500.02, -117931.76, 187500.00, -187500.02, 187500.00, -187500.02, -187500.02, -187500.02, 0
157, -187500.02, -119271.63, 187500.00, -187500.02, 187500.00, -187500.02, -187500.02, -187500.02, 0
158, -187500.02, -120320.13, 187500.00, -187500.02, 187500.00, -187500.02, -187500.02, -187500.02, 0
159, -187500.02, -118686.09, 187500.00, -187500.02, 187500.00, -187500.02, -187500.02, -187500.02, 0
160, -187500.02, -117861.95, 187500.00, -187500.02, 187500.00, -187500.02, -187500.02, -187500.02, 0
161, -187500.02, -118949.45, 187500.00, -187500.02, 187500.00, -187500.02, -187500.02, -187500.02, 0
162, -187500.02, -120347.35, 187500.00, -187500.02, 187500.00, -187500.02, -187500.02, -187500.02, 0
163, -187500.02, -119020.60, 187500.00, -187500.02, 187500.00, -187500.02, -187500.02, -187500.02, 0
164, -187500.02, -117832.67, 187500.00, -187500.02, 187500.00, -187500.02, -187500.02, -187500.02, 0
165, -187500.02, -118633.06, 187500.00, -187500.02, 187500.00, -187500.02, -187500.02, -187500.02, 0
166, -187500.02, -118304.63, 187500.00, -187500.02, 187500.00, -187500.02, -187500.02, 0.00, 0
167, -187500.02, -117908.38, 187500.00, -187500.02, 187500.00, -187500.02, -187500.02, 0.00, 0
168, -187500.02, -119305.12, 187500.00, -187500.02, 187500.00, -187500.02, -187500.02, 0.00, 0
