%OpenBCI Raw EEG Data
%
%Sample Rate = 250.0 Hz
%First Column = SampleIndex
%Other Columns = EEG data in microvolts with optional columns at end being unscaled Aux data
0, -187500.02, -107621.68, 187500.00, -187500.02, 187500.00, -187500.02, -187500.02, -187500.02, 0
1, -187500.02, -107166.87, 187500.00, -187500.02, 187500.00, -187500.02, -187500.02, -187500.02, 0
2, -187500.02, -106652.59, 187500.00, -187500.02, 187500.00, -187500.02, -187500.02, -187500.02, 0
3, -187500.02, -107000.19, 187500.00, -187500.02, 187500.00, -187500.02, -187500.02, -187500.02, 0
4, -187500.02, -107567.45, 187500.00, -187500.02, 187500.00, -187500.02, -187500.02, -187500.02, 0
5, -187500.02, -107318.23, 187500.00, -187500.02, 187500.00, -187500.02, -187500.02, -187500.02, 0
6, -187500.02, -106674.70, 187500.00, -187500.02, 187500.00, -187500.02, -187500.02, -187500.02, 0
7, -187500.02, -106891.94, 187500.00, -187500.02, 187500.00, -187500.02, -187500.02, -187500.02, 0
8, -187500.02, -107455.43, 187500.00, -187500.02, 187500.00, -187500.02, -187500.02, -187500.02, 0
9, -187500.02, -107422.57, 187500.00, -187500.02, 187500.00, -187500.02, -187500.02, -187500.02, 0
10, -187500.02, -106723.56, 187500.00, -187500.02, 187500.00, -187500.02, -187500.02, -187500.02, 0
11, -187500.02, -106855.02, 187500.00, -187500.02, 187500.00, -187500.02, -187500.02, -187500.02, 0
12, -187500.02, -107419.84, 187500.00, -187500.02, 187500.00, -187500.02, -187500.02, -187500.02, 0
13, -187500.02, -107569.76, 187500.00, -187500.02, 187500.00, -187500.02, -187500.02, -187500.02, 0
14, -187500.02, -106824.84, 187500.00, -187500.02, 187500.00, -187500.02, -187500.02, -187500.02, 0
15, -187500.02, -106789.39, 187500.00, -187500.02, 187500.00, -187500.02, -187500.02, -187500.02, 0
16, -187500.02, -107303.88, 187500.00, -187500.02, 187500.00, -187500.02, -187500.02, -187500.02, 0
17, -187500.02, -107631.31, 187500.00, -187500.02, 187500.00, -187500.02, -187500.02, -187500.02, 0
18, -187500.02, -106930.63, 187500.00, -187500.02, 187500.00, -187500.02, -187500.02, -187500.02, 0
19, -187500.02, -106714.17, 187500.00, -187500.02, 187500.00, -187500.02, -187500.02, -187500.02, 0
20, -187500.02, -107183.30, 187500.00, -187500.02, 187500.00, -187500.02, -187500.02, -187500.02, 0
21, -187500.02, -107637.41, 187500.00, -187500.02, 187500.00, -187500.02, -187500.02, -187500.02, 0
22, -187500.02, -107058.93, 187500.00, -187500.02, 187500.00, -187500.02, -187500.02, -187500.02, 0
23, -187500.02, -106670.03, 187500.00, -187500.02, 187500.00, -187500.02, -187500.02, -187500.02, 0
24, -187500.02, -107070.91, 187500.00, -187500.02, 187500.00, -187500.02, -187500.02, -187500.02, 0
25, -187500.02, -107599.59, 187500.00, -187500.02, 187500.00, -187500.02, -187500.02, -187500.02, 0
26, -187500.02, -107196.48, 187500.00, -187500.02, 187500.00, -187500.02, -187500.02, -187500.02, 0
27, -187500.02, -106668.04, 187500.00, -187500.02, 187500.00, -187500.02, -187500.02, -187500.02, 0
28, -187500.02, -106998.11, 187500.00, -187500.02, 187500.00, -187500.02, -187500.02, -187500.02, 0
29, -187500.02, -107577.22, 187500.00, -187500.02, 187500.00, -187500.02, -187500.02, -187500.02, 0
30, -187500.02, -107382.56, 187500.00, -187500.02, 187500.00, -187500.02, -187500.02, -187500.02, 0
31, -187500.02, -106721.33, 187500.00, -187500.02, 187500.00, -187500.02, -187500.02, -187500.02, 0
32, -187500.02, -106930.12, 187500.00, -187500.02, 187500.00, -187500.02, -187500.02, -187500.02, 0
33, -187500.02, -107491.75, 187500.00, -187500.02, 187500.00, -187500.02, -187500.02, -187500.02, 0
34, -187500.02, -107512.60, 187500.00, -187500.02, 187500.00, -187500.02, -187500.02, -187500.02, 0
35, -187500.02, -106777.25, 187500.00, -187500.02, 187500.00, -187500.02, -187500.02, -187500.02, 0
36, -187500.02, -106827.41, 187500.00, -187500.02, 187500.00, -187500.02, -187500.02, -187500.02, 0
37, -187500.02, -107384.13, 187500.00, -187500.02, 187500.00, -187500.02, -187500.02, -187500.02, 0
38, -187500.02, -107629.14, 187500.00, -187500.02, 187500.00, -187500.02, -187500.02, -187500.02, 0
39, -187500.02, -106902.22, 187500.00, -187500.02, 187500.00, -187500.02, -187500.02, -187500.02, 0
40, -187500.02, -106806.06, 187500.00, -187500.02, 187500.00, -187500.02, -187500.02, -187500.02, 0
41, -187500.02, -107285.87, 187500.00, -187500.02, 187500.00, -187500.02, -187500.02, -187500.02, 0
42, -187500.02, -107638.11, 187500.00, -187500.02, 187500.00, -187500.02, -187500.02, -187500.02, 0
43, -187500.02, -106984.70, 187500.00, -187500.02, 187500.00, -187500.02, -187500.02, -187500.02, 0
44, -187500.02, -106745.65, 187500.00, -187500.02, 187500.00, -187500.02, -187500.02, -187500.02, 0
45, -187500.02, -107198.38, 187500.00, -187500.02, 187500.00, -187500.02, -187500.02, -187500.02, 0
46, -187500.02, -107669.96, 187500.00, -187500.02, 187500.00, -187500.02, -187500.02, -187500.02, 0
47, -187500.02, -107140.13, 187500.00, -187500.02, 187500.00, -187500.02, -187500.02, -187500.02, 0
48, -187500.02, -106704.81, 187500.00, -187500.02, 187500.00, -187500.02, -187500.02, -187500.02, 0
49, -187500.02, -107071.00, 187500.00, -187500.02, 187500.00, -187500.02, -187500.02, -187500.02, 0
50, -187500.02, -107616.43, 187500.00, -187500.02, 187500.00, -187500.02, -187500.02, -187500.02, 0
51, -187500.02, -107289.42, 187500.00, -187500.02, 187500.00, -187500.02, -187500.02, -187500.02, 0
52, -187500.02, -106710.45, 187500.00, -187500.02, 187500.00, -187500.02, -187500.02, -187500.02, 0
53, -187500.02, -106985.48, 187500.00, -187500.02, 187500.00, -187500.02, -187500.02, -187500.02, 0
54, -187500.02, -107529.99, 187500.00, -187500.02, 187500.00, -187500.02, -187500.02, -187500.02, 0
55, -187500.02, -107405.98, 187500.00, -187500.02, 187500.00, -187500.02, -187500.02, -187500.02, 0
56, -187500.02, -106742.18, 187500.00, -187500.02, 187500.00, -187500.02, -187500.02, -187500.02, 0
57, -187500.02, -106909.73, 187500.00, -187500.02, 187500.00, -187500.02, -187500.02, -187500.02, 0
58, -187500.02, -107471.92, 187500.00, -187500.02, 187500.00, -187500.02, -187500.02, -187500.02, 0
59, -187500.02, -107549.04, 187500.00, -187500.02, 187500.00, -187500.02, -187500.02, -187500.02, 0
60, -187500.02, -106807.36, 187500.00, -187500.02, 187500.00, -187500.02, -187500.02, -187500.02, 0
61, -187500.02, -106825.42, 187500.00, -187500.02, 187500.00, -187500.02, -187500.02, -187500.02, 0
62, -187500.02, -107348.67, 187500.00, -187500.02, 187500.00, -187500.02, -187500.02, -187500.02, 0
63, -187500.02, -107614.86, 187500.00, -187500.02, 187500.00, -187500.02, -187500.02, -187500.02, 0
64, -187500.02, -106907.16, 187500.00, -187500.02, 187500.00, -187500.02, -187500.02, -187500.02, 0
65, -187500.02, -106796.59, 187500.00, -187500.02, 187500.00, -187500.02, -187500.02, -187500.02, 0
66, -187500.02, -107279.43, 187500.00, -187500.02, 187500.00, -187500.02, -187500.02, -187500.02, 0
67, -187500.02, -107674.36, 187500.00, -187500.02, 187500.00, -187500.02, -187500.02, -187500.02, 0
68, -187500.02, -107050.15, 187500.00, -187500.02, 187500.00, -187500.02, -187500.02, -187500.02, 0
69, -187500.02, -106726.60, 187500.00, -187500.02, 187500.00, -187500.02, -187500.02, -187500.02, 0
70, -187500.02, -107140.67, 187500.00, -187500.02, 187500.00, -187500.02, -187500.02, -187500.02, 0
71, -187500.02, -107633.52, 187500.00, -187500.02, 187500.00, -187500.02, -187500.02, -187500.02, 0
72, -187500.02, -107159.22, 187500.00, -187500.02, 187500.00, -187500.02, -187500.02, -187500.02, 0
73, -187500.02, -106673.72, 187500.00, -187500.02, 187500.00, -187500.02, -187500.02, -187500.02, 0
74, -187500.02, -107020.55, 187500.00, -187500.02, 187500.00, -187500.02, -187500.02, -187500.02, 0
75, -187500.02, -107579.48, 187500.00, -187500.02, 187500.00, -187500.02, -187500.02, -187500.02, 0
76, -187500.02, -107330.86, 187500.00, -187500.02, 187500.00, -187500.02, -187500.02, -187500.02, 0
77, -187500.02, -106723.41, 187500.00, -187500.02, 187500.00, -187500.02, -187500.02, -187500.02, 0
78, -187500.02, -106962.23, 187500.00, -187500.02, 187500.00, -187500.02, -187500.02, -187500.02, 0
79, -187500.02, -107519.24, 187500.00, -187500.02, 187500.00, -187500.02, -187500.02, -187500.02, 0
80, -187500.02, -107438.71, 187500.00, -187500.02, 187500.00, -187500.02, -187500.02, -187500.02, 0
81, -187500.02, -106713.20, 187500.00, -187500.02, 187500.00, -187500.02, -187500.02, -187500.02, 0
82, -187500.02, -106843.10, 187500.00, -187500.02, 187500.00, -187500.02, -187500.02, -187500.02, 0
83, -187500.02, -107402.90, 187500.00, -187500.02, 187500.00, -187500.02, -187500.02, -187500.02, 0
84, -187500.02, -107563.88, 187500.00, -187500.02, 187500.00, -187500.02, -187500.02, -187500.02, 0
85, -187500.02, -106839.91, 187500.00, -187500.02, 187500.00, -187500.02, -187500.02, -187500.02, 0
86, -187500.02, -106817.22, 187500.00, -187500.02, 187500.00, -187500.02, -187500.02, -187500.02, 0
87, -187500.02, -107329.27, 187500.00, -187500.02, 187500.00, -187500.02, -187500.02, -187500.02, 0
88, -187500.02, -107633.99, 187500.00, -187500.02, 187500.00, -187500.02, -187500.02, -187500.02, 0
89, -187500.02, -106929.00, 187500.00, -187500.02, 187500.00, -187500.02, -187500.02, -187500.02, 0
90, -187500.02, -106732.05, 187500.00, -187500.02, 187500.00, -187500.02, -187500.02, -187500.02, 0
91, -187500.02, -107205.58, 187500.00, -187500.02, 187500.00, -187500.02, -187500.02, -187500.02, 0
92, -187500.02, -107644.66, 187500.00, -187500.02, 187500.00, -187500.02, -187500.02, -187500.02, 0
93, -187500.02, -107074.64, 187500.00, -187500.02, 187500.00, -187500.02, -187500.02, -187500.02, 0
94, -187500.02, -106711.88, 187500.00, -187500.02, 187500.00, -187500.02, -187500.02, -187500.02, 0
95, -187500.02, -107105.73, 187500.00, -187500.02, 187500.00, -187500.02, -187500.02, -187500.02, 0
96, -187500.02, -107606.13, 187500.00, -187500.02, 187500.00, -187500.02, -187500.02, -187500.02, 0
97, -187500.02, -107197.55, 187500.00, -187500.02, 187500.00, -187500.02, -187500.02, -187500.02, 0
98, -187500.02, -106689.03, 187500.00, -187500.02, 187500.00, -187500.02, -187500.02, -187500.02, 0
99, -187500.02, -107006.20, 187500.00, -187500.02, 187500.00, -187500.02, -187500.02, -187500.02, 0
100, -187500.02, -107574.52, 187500.00, -187500.02, 187500.00, -187500.02, -187500.02, -187500.02, 0
101, -187500.02, -107374.58, 187500.00, -187500.02, 187500.00, -187500.02, -187500.02, -187500.02, 0
102, -187500.02, -106730.27, 187500.00, -187500.02, 187500.00, -187500.02, -187500.02, -187500.02, 0
103, -187500.02, -106933.54, 187500.00, -187500.02, 187500.00, -187500.02, -187500.02, -187500.02, 0
104, -187500.02, -107485.31, 187500.00, -187500.02, 187500.00, -187500.02, -187500.02, -187500.02, 0
105, -187500.02, -107483.97, 187500.00, -187500.02, 187500.00, -187500.02, -187500.02, -187500.02, 0
106, -187500.02, -106771.04, 187500.00, -187500.02, 187500.00, -187500.02, -187500.02, -187500.02, 0
107, -187500.02, -106853.23, 187500.00, -187500.02, 187500.00, -187500.02, -187500.02, -187500.02, 0
108, -187500.02, -107381.94, 187500.00, -187500.02, 187500.00, -187500.02, -187500.02, -187500.02, 0
109, -187500.02, -107568.73, 187500.00, -187500.02, 187500.00, -187500.02, -187500.02, -187500.02, 0
110, -187500.02, -106847.84, 187500.00, -187500.02, 187500.00, -187500.02, -187500.02, -187500.02, 0
111, -187500.02, -106782.69, 187500.00, -187500.02, 187500.00, -187500.02, -187500.02, -187500.02, 0
112, -187500.02, -107290.29, 187500.00, -187500.02, 187500.00, -187500.02, -187500.02, -187500.02, 0
113, -187500.02, -107647.88, 187500.00, -187500.02, 187500.00, -187500.02, -187500.02, -187500.02, 0
114, -187500.02, -106981.63, 187500.00, -187500.02, 187500.00, -187500.02, -187500.02, -187500.02, 0
115, -187500.02, -106748.22, 187500.00, -187500.02, 187500.00, -187500.02, -187500.02, -187500.02, 0
116, -187500.02, -107200.62, 187500.00, -187500.02, 187500.00, -187500.02, -187500.02, -187500.02, 0
117, -187500.02, -107661.11, 187500.00, -187500.02, 187500.00, -187500.02, -187500.02, -187500.02, 0
118, -187500.02, -107116.98, 187500.00, -187500.02, 187500.00, -187500.02, -187500.02, -187500.02, 0
119, -187500.02, -106692.05, 187500.00, -187500.02, 187500.00, -187500.02, -187500.02, -187500.02, 0
120, -187500.02, -107080.70, 187500.00, -187500.02, 187500.00, -187500.02, -187500.02, -187500.02, 0
121, -187500.02, -107635.45, 187500.00, -187500.02, 187500.00, -187500.02, -187500.02, -187500.02, 0
122, -187500.02, -107274.63, 187500.00, -187500.02, 187500.00, -187500.02, -187500.02, -187500.02, 0
123, -187500.02, -106693.34, 187500.00, -187500.02, 187500.00, -187500.02, -187500.02, -187500.02, 0
124, -187500.02, -106996.45, 187500.00, -187500.02, 187500.00, -187500.02, -187500.02, -187500.02, 0
125, -187500.02, -107569.22, 187500.00, -187500.02, 187500.00, -187500.02, -187500.02, -187500.02, 0
126, -187500.02, -107417.20, 187500.00, -187500.02, 187500.00, -187500.02, -187500.02, -187500.02, 0
127, -187500.02, -106735.34, 187500.00, -187500.02, 187500.00, -187500.02, -187500.02, -187500.02, 0
128, -187500.02, -106906.42, 187500.00, -187500.02, 187500.00, -187500.02, -187500.02, -187500.02, 0
129, -187500.02, -107466.38, 187500.00, -187500.02, 187500.00, -187500.02, -187500.02, -187500.02, 0
130, -187500.02, -107530.46, 187500.00, -187500.02, 187500.00, -187500.02, -187500.02, -187500.02, 0
131, -187500.02, -106804.84, 187500.00, -187500.02, 187500.00, -187500.02, -187500.02, -187500.02, 0
132, -187500.02, -106838.92, 187500.00, -187500.02, 187500.00, -187500.02, -187500.02, -187500.02, 0
133, -187500.02, -107357.98, 187500.00, -187500.02, 187500.00, -187500.02, -187500.02, -187500.02, 0
134, -187500.02, -107597.54, 187500.00, -187500.02, 187500.00, -187500.02, -187500.02, -187500.02, 0
135, -187500.02, -106888.32, 187500.00, -187500.02, 187500.00, -187500.02, -187500.02, -187500.02, 0
136, -187500.02, -106770.23, 187500.00, -187500.02, 187500.00, -187500.02, -187500.02, -187500.02, 0
137, -187500.02, -107236.76, 187500.00, -187500.02, 187500.00, -187500.02, -187500.02, -187500.02, 0
138, -187500.02, -107620.80, 187500.00, -187500.02, 187500.00, -187500.02, -187500.02, -187500.02, 0
139, -187500.02, -107007.52, 187500.00, -187500.02, 187500.00, -187500.02, -187500.02, -187500.02, 0
140, -187500.02, -106713.62, 187500.00, -187500.02, 187500.00, -187500.02, -187500.02, -187500.02, 0
141, -187500.02, -107126.34, 187500.00, -187500.02, 187500.00, -187500.02, -187500.02, -187500.02, 0
142, -187500.02, -107630.93, 187500.00, -187500.02, 187500.00, -187500.02, -187500.02, -187500.02, 0
143, -187500.02, -107170.82, 187500.00, -187500.02, 187500.00, -187500.02, -187500.02, -187500.02, 0
144, -187500.02, -106702.33, 187500.00, -187500.02, 187500.00, -187500.02, -187500.02, -187500.02, 0
145, -187500.02, -107045.27, 187500.00, -187500.02, 187500.00, -187500.02, -187500.02, -187500.02, 0
146, -187500.02, -107588.95, 187500.00, -187500.02, 187500.00, -187500.02, -187500.02, -187500.02, 0
147, -187500.02, -107302.88, 187500.00, -187500.02, 187500.00, -187500.02, -187500.02, -187500.02, 0
148, -187500.02, -106701.16, 187500.00, -187500.02, 187500.00, -187500.02, -187500.02, -187500.02, 0
149, -187500.02, -106960.58, 187500.00, -187500.02, 187500.00, -187500.02, -187500.02, -187500.02, 0
150, -187500.02, -107521.03, 187500.00, -187500.02, 187500.00, -187500.02, -187500.02, -187500.02, 0
151, -187500.02, -107440.65, 187500.00, -187500.02, 187500.00, -187500.02, -187500.02, -187500.02, 0
152, -187500.02, -106739.21, 187500.00, -187500.02, 187500.00, -187500.02, -187500.02, -187500.02, 0
153, -187500.02, -106875.69, 187500.00, -187500.02, 187500.00, -187500.02, -187500.02, -187500.02, 0
154, -187500.02, -107427.62, 187500.00, -187500.02, 187500.00, -187500.02, -187500.02, -187500.02, 0
155, -187500.02, -107556.97, 187500.00, -187500.02, 187500.00, -187500.02, -187500.02, -187500.02, 0
156, -187500.02, -106816.84, 187500.00, -187500.02, 187500.00, -187500.02, -187500.02, -187500.02, 0
157, -187500.02, -106798.58, 187500.00, -187500.02, 187500.00, -187500.02, -187500.02, -187500.02, 0
158, -187500.02, -107320.22, 187500.00, -187500.02, 187500.00, -187500.02, -187500.02, -187500.02, 0
159, -187500.02, -107626.20, 187500.00, -187500.02, 187500.00, -187500.02, -187500.02, -187500.02, 0
160, -187500.02, -106929.80, 187500.00, -187500.02, 187500.00, -187500.02, -187500.02, -187500.02, 0
161, -187500.02, -106744.38, 187500.00, -187500.02, 187500.00, -187500.02, -187500.02, -187500.02, 0
162, -187500.02, -107208.95, 187500.00, -187500.02, 187500.00, -187500.02, -187500.02, -187500.02, 0
163, -187500.02, -107648.44, 187500.00, -187500.02, 187500.00, -187500.02, -187500.02, -187500.02, 0
164, -187500.02, -107048.78, 187500.00, -187500.02, 187500.00, -187500.02, -187500.02, -187500.02, 0
165, -187500.02, -106696.98, 187500.00, -187500.02, 187500.00, -187500.02, -187500.02, -187500.02, 0
166, -187500.02, -107112.26, 187500.00, -187500.02, 187500.00, -187500.02, -187500.02, -187500.02, 0
167, -187500.02, -107624.16, 187500.00, -187500.02, 187500.00, -187500.02, -187500.02, -187500.02, 0
168, -187500.02, -107206.45, 187500.00, -187500.02, 187500.00, -187500.02, -187500.02, -187500.02, 0
169, -187500.02, -106693.27, 187500.00, -187500.02, 187500.00, -187500.02, -187500.02, -187500.02, 0
170, -187500.02, -107013.06, 187500.00, -187500.02, 187500.00, -187500.02, -187500.02, -187500.02, 0
171, -187500.02, -107563.90, 187500.00, -187500.02, 187500.00, -187500.02, -187500.02, -187500.02, 0
172, -187500.02, -107336.70, 187500.00, -187500.02, 187500.00, -187500.02, -187500.02, -187500.02, 0
173, -187500.02, -106706.60, 187500.00, -187500.02, 187500.00, -187500.02, -187500.02, -187500.02, 0
174, -187500.02, -106936.46, 187500.00, -187500.02, 187500.00, -187500.02, -187500.02, -187500.02, 0
175, -187500.02, -107508.91, 187500.00, -187500.02, 187500.00, -187500.02, -187500.02, -187500.02, 0
176, -187500.02, -107486.34, 187500.00, -187500.02, 187500.00, -187500.02, -187500.02, -187500.02, 0
177, -187500.02, -106753.73, 187500.00, -187500.02, 187500.00, -187500.02, -187500.02, -187500.02, 0
178, -187500.02, -106828.62, 187500.00, -187500.02, 187500.00, -187500.02, -187500.02, -187500.02, 0
179, -187500.02, -107376.75, 187500.00, -187500.02, 187500.00, -187500.02, -187500.02, -187500.02, 0
180, -187500.02, -107586.85, 187500.00, -187500.02, 187500.00, -187500.02, -187500.02, -187500.02, 0
181, -187500.02, -106866.93, 187500.00, -187500.02, 187500.00, -187500.02, -187500.02, -187500.02, 0
182, -187500.02, -106802.98, 187500.00, -187500.02, 187500.00, -187500.02, -187500.02, -187500.02, 0
183, -187500.02, -107300.95, 187500.00, -187500.02, 187500.00, -187500.02, -187500.02, -187500.02, 0
184, -187500.02, -107632.97, 187500.00, -187500.02, 187500.00, -187500.02, -187500.02, -187500.02, 0
185, -187500.02, -106981.39, 187500.00, -187500.02, 187500.00, -187500.02, -187500.02, -187500.02, 0
186, -187500.02, -106757.49, 187500.00, -187500.02, 187500.00, -187500.02, -187500.02, -187500.02, 0
187, -187500.02, -107220.69, 187500.00, -187500.02, 187500.00, -187500.02, -187500.02, -187500.02, 0
188, -187500.02, -107684.30, 187500.00, -187500.02, 187500.00, -187500.02, -187500.02, -187500.02, 0
189, -187500.02, -107142.30, 187500.00, -187500.02, 187500.00, -187500.02, -187500.02, -187500.02, 0
190, -187500.02, -106746.16, 187500.00, -187500.02, 187500.00, -187500.02, -187500.02, -187500.02, 0
191, -187500.02, -107127.26, 187500.00, -187500.02, 187500.00, -187500.02, -187500.02, -187500.02, 0
192, -187500.02, -107663.25, 187500.00, -187500.02, 187500.00, -187500.02, -187500.02, -187500.02, 0
193, -187500.02, -107314.99, 187500.00, -187500.02, 187500.00, -187500.02, -187500.02, -187500.02, 0
194, -187500.02, -106762.84, 187500.00, -187500.02, 187500.00, -187500.02, -187500.02, -187500.02, 0
195, -187500.02, -107043.73, 187500.00, -187500.02, 187500.00, -187500.02, -187500.02, -187500.02, 0
196, -187500.02, -107602.59, 187500.00, -187500.02, 187500.00, -187500.02, -187500.02, -187500.02, 0
197, -187500.02, -107447.38, 187500.00, -187500.02, 187500.00, -187500.02, -187500.02, -187500.02, 0
198, -187500.02, -106771.69, 187500.00, -187500.02, 187500.00, -187500.02, -187500.02, -187500.02, 0
199, -187500.02, -106956.80, 187500.00, -187500.02, 187500.00, -187500.02, -187500.02, -187500.02, 0
200, -187500.02, -107517.45, 187500.00, -187500.02, 187500.00, -187500.02, -187500.02, -187500.02, 0
201, -187500.02, -107571.45, 187500.00, -187500.02, 187500.00, -187500.02, -187500.02, -187500.02, 0
202, -187500.02, -106848.73, 187500.00, -187500.02, 187500.00, -187500.02, -187500.02, -187500.02, 0
203, -187500.02, -106897.68, 187500.00, -187500.02, 187500.00, -187500.02, -187500.02, -187500.02, 0
204, -187500.02, -107426.52, 187500.00, -187500.02, 187500.00, -187500.02, -187500.02, -187500.02, 0
205, -187500.02, -107655.74, 187500.00, -187500.02, 187500.00, -187500.02, -187500.02, -187500.02, 0
206, -187500.02, -106927.70, 187500.00, -187500.02, 187500.00, -187500.02, -187500.02, -187500.02, 0
207, -187500.02, -106818.13, 187500.00, -187500.02, 187500.00, -187500.02, -187500.02, -187500.02, 0
208, -187500.02, -107303.99, 187500.00, -187500.02, 187500.00, -187500.02, -187500.02, -187500.02, 0
209, -187500.02, -107687.17, 187500.00, -187500.02, 187500.00, -187500.02, -187500.02, -187500.02, 0
210, -187500.02, -107068.59, 187500.00, -187500.02, 187500.00, -187500.02, -187500.02, -187500.02, 0
211, -187500.02, -106779.11, 187500.00, -187500.02, 187500.00, -187500.02, -187500.02, -187500.02, 0
212, -187500.02, -107198.67, 187500.00, -187500.02, 187500.00, -187500.02, -187500.02, -187500.02, 0
213, -187500.02, -107694.16, 187500.00, -187500.02, 187500.00, -187500.02, -187500.02, -187500.02, 0
214, -187500.02, -107204.95, 187500.00, -187500.02, 187500.00, -187500.02, -187500.02, -187500.02, 0
215, -187500.02, -106750.27, 187500.00, -187500.02, 187500.00, -187500.02, -187500.02, -187500.02, 0
216, -187500.02, -107105.47, 187500.00, -187500.02, 187500.00, -187500.02, -187500.02, -187500.02, 0
217, -187500.02, -107655.43, 187500.00, -187500.02, 187500.00, -187500.02, -187500.02, -187500.02, 0
218, -187500.02, -107360.23, 187500.00, -187500.02, 187500.00, -187500.02, -187500.02, -187500.02, 0
219, -187500.02, -106772.00, 187500.00, -187500.02, 187500.00, -187500.02, -187500.02, -187500.02, 0
220, -187500.02, -107040.11, 187500.00, -187500.02, 187500.00, -187500.02, -187500.02, -187500.02, 0
221, -187500.02, -107590.45, 187500.00, -187500.02, 187500.00, -187500.02, -187500.02, -187500.02, 0
222, -187500.02, -107494.45, 187500.00, -187500.02, 187500.00, -187500.02, -187500.02, -187500.02, 0
223, -187500.02, -106809.75, 187500.00, -187500.02, 187500.00, -187500.02, -187500.02, -187500.02, 0
224, -187500.02, -106969.39, 187500.00, -187500.02, 187500.00, -187500.02, -187500.02, -187500.02, 0
225, -187500.02, -107525.32, 187500.00, -187500.02, 187500.00, -187500.02, -187500.02, -187500.02, 0
226, -187500.02, -107625.77, 187500.00, -187500.02, 187500.00, -187500.02, -187500.02, -187500.02, 0
227, -187500.02, -106896.37, 187500.00, -187500.02, 187500.00, -187500.02, -187500.02, -187500.02, 0
228, -187500.02, -106889.59, 187500.00, -187500.02, 187500.00, -187500.02, -187500.02, -187500.02, 0
229, -187500.02, -107401.40, 187500.00, -187500.02, 187500.00, -187500.02, -187500.02, -187500.02, 0
230, -187500.02, -107673.09, 187500.00, -187500.02, 187500.00, -187500.02, -187500.02, -187500.02, 0
231, -187500.02, -106977.59, 187500.00, -187500.02, 187500.00, -187500.02, -187500.02, -187500.02, 0
232, -187500.02, -106834.18, 187500.00, -187500.02, 187500.00, -187500.02, -187500.02, -187500.02, 0
233, -187500.02, -107305.40, 187500.00, -187500.02, 187500.00, -187500.02, -187500.02, -187500.02, 0
234, -187500.02, -107712.94, 187500.00, -187500.02, 187500.00, -187500.02, -187500.02, -187500.02, 0
235, -187500.02, -107108.91, 187500.00, -187500.02, 187500.00, -187500.02, -187500.02, -187500.02, 0
236, -187500.02, -106773.14, 187500.00, -187500.02, 187500.00, -187500.02, -187500.02, -187500.02, 0
237, -187500.02, -107192.50, 187500.00, -187500.02, 187500.00, -187500.02, -187500.02, -187500.02, 0
238, -187500.02, -107703.80, 187500.00, -187500.02, 187500.00, -187500.02, -187500.02, -187500.02, 0
239, -187500.02, -107258.91, 187500.00, -187500.02, 187500.00, -187500.02, -187500.02, -187500.02, 0
240, -187500.02, -106750.07, 187500.00, -187500.02, 187500.00, -187500.02, -187500.02, -187500.02, 0
241, -187500.02, -107091.49, 187500.00, -187500.02, 187500.00, -187500.02, -187500.02, -187500.02, 0
242, -187500.02, -107658.72, 187500.00, -187500.02, 187500.00, -187500.02, -187500.02, -187500.02, 0
243, -187500.02, -107413.38, 187500.00, -187500.02, 187500.00, -187500.02, -187500.02, -187500.02, 0
244, -187500.02, -106790.75, 187500.00, -187500.02, 187500.00, -187500.02, -187500.02, -187500.02, 0
245, -187500.02, -107017.60, 187500.00, -187500.02, 187500.00, -187500.02, -187500.02, -187500.02, 0
246, -187500.02, -107573.69, 187500.00, -187500.02, 187500.00, -187500.02, -187500.02, -187500.02, 0
247, -187500.02, -107540.61, 187500.00, -187500.02, 187500.00, -187500.02, -187500.02, -187500.02, 0
248, -187500.02, -106819.99, 187500.00, -187500.02, 187500.00, -187500.02, -187500.02, -187500.02, 0
249, -187500.02, -106920.82, 187500.00, -187500.02, 187500.00, -187500.02, -187500.02, -187500.02, 0
250, -187500.02, -107481.89, 187500.00, -187500.02, 187500.00, -187500.02, -187500.02, -187500.02, 0
251, -187500.02, -107639.27, 187500.00, -187500.02, 187500.00, -187500.02, -187500.02, -187500.02, 0
252, -187500.02, -106913.17, 187500.00, -187500.02, 187500.00, -187500.02, -187500.02, -187500.02, 0
253, -187500.02, -106867.69, 187500.00, -187500.02, 187500.00, -187500.02, -187500.02, -187500.02, 0
254, -187500.02, -107370.73, 187500.00, -187500.02, 187500.00, -187500.02, -187500.02, -187500.02, 0
255, -187500.02, -107697.74, 187500.00, -187500.02, 187500.00, -187500.02, -187500.02, -187500.02, 0
0, -187500.02, -107022.43, 187500.00, -187500.02, 187500.00, -187500.02, -187500.02, -187500.02, 0
1, -187500.02, -106803.13, 187500.00, -187500.02, 187500.00, -187500.02, -187500.02, -187500.02, 0
2, -187500.02, -107248.78, 187500.00, -187500.02, 187500.00, -187500.02, -187500.02, -187500.02, 0
3, -187500.02, -107701.56, 187500.00, -187500.02, 187500.00, -187500.02, -187500.02, -187500.02, 0
4, -187500.02, -107158.59, 187500.00, -187500.02, 187500.00, -187500.02, -187500.02, -187500.02, 0
5, -187500.02, -106771.75, 187500.00, -187500.02, 187500.00, -187500.02, -187500.02, -187500.02, 0
6, -187500.02, -107152.49, 187500.00, -187500.02, 187500.00, -187500.02, -187500.02, -187500.02, 0
7, -187500.02, -107668.95, 187500.00, -187500.02, 187500.00, -187500.02, -187500.02, -187500.02, 0
8, -187500.02, -107295.03, 187500.00, -187500.02, 187500.00, -187500.02, -187500.02, -187500.02, 0
9, -187500.02, -106759.46, 187500.00, -187500.02, 187500.00, -187500.02, -187500.02, -187500.02, 0
10, -187500.02, -107050.15, 187500.00, -187500.02, 187500.00, -187500.02, -187500.02, -187500.02, 0
11, -187500.02, -107617.08, 187500.00, -187500.02, 187500.00, -187500.02, -187500.02, -187500.02, 0
12, -187500.02, -107448.14, 187500.00, -187500.02, 187500.00, -187500.02, -187500.02, -187500.02, 0
13, -187500.02, -106793.70, 187500.00, -187500.02, 187500.00, -187500.02, -187500.02, -187500.02, 0
14, -187500.02, -106988.41, 187500.00, -187500.02, 187500.00, -187500.02, -187500.02, -187500.02, 0
15, -187500.02, -107551.80, 187500.00, -187500.02, 187500.00, -187500.02, -187500.02, -187500.02, 0
16, -187500.02, -107577.51, 187500.00, -187500.02, 187500.00, -187500.02, -187500.02, -187500.02, 0
17, -187500.02, -106846.48, 187500.00, -187500.02, 187500.00, -187500.02, -187500.02, -187500.02, 0
18, -187500.02, -106910.16, 187500.00, -187500.02, 187500.00, -187500.02, -187500.02, -187500.02, 0
19, -187500.02, -107438.28, 187500.00, -187500.02, 187500.00, -187500.02, -187500.02, -187500.02, 0
20, -187500.02, -107658.16, 187500.00, -187500.02, 187500.00, -187500.02, -187500.02, -187500.02, 0
21, -187500.02, -106948.09, 187500.00, -187500.02, 187500.00, -187500.02, -187500.02, -187500.02, 0
22, -187500.02, -106855.41, 187500.00, -187500.02, 187500.00, -187500.02, -187500.02, -187500.02, 0
23, -187500.02, -107332.85, 187500.00, -187500.02, 187500.00, -187500.02, -187500.02, -187500.02, 0
24, -187500.02, -107711.27, 187500.00, -187500.02, 187500.00, -187500.02, -187500.02, -187500.02, 0
25, -187500.02, -107070.13, 187500.00, -187500.02, 187500.00, -187500.02, -187500.02, -187500.02, 0
26, -187500.02, -106799.85, 187500.00, -187500.02, 187500.00, -187500.02, -187500.02, -187500.02, 0
27, -187500.02, -107234.77, 187500.00, -187500.02, 187500.00, -187500.02, -187500.02, -187500.02, 0
28, -187500.02, -107711.55, 187500.00, -187500.02, 187500.00, -187500.02, -187500.02, -187500.02, 0
29, -187500.02, -107205.24, 187500.00, -187500.02, 187500.00, -187500.02, -187500.02, -187500.02, 0
30, -187500.02, -106768.22, 187500.00, -187500.02, 187500.00, -187500.02, -187500.02, -187500.02, 0
31, -187500.02, -107134.01, 187500.00, -187500.02, 187500.00, -187500.02, -187500.02, -187500.02, 0
32, -187500.02, -107662.98, 187500.00, -187500.02, 187500.00, -187500.02, -187500.02, -187500.02, 0
33, -187500.02, -107341.16, 187500.00, -187500.02, 187500.00, -187500.02, -187500.02, -187500.02, 0
34, -187500.02, -106764.60, 187500.00, -187500.02, 187500.00, -187500.02, -187500.02, -187500.02, 0
35, -187500.02, -107020.02, 187500.00, -187500.02, 187500.00, -187500.02, -187500.02, -187500.02, 0
36, -187500.02, -107583.23, 187500.00, -187500.02, 187500.00, -187500.02, -187500.02, -187500.02, 0
37, -187500.02, -107481.53, 187500.00, -187500.02, 187500.00, -187500.02, -187500.02, -187500.02, 0
38, -187500.02, -106820.15, 187500.00, -187500.02, 187500.00, -187500.02, -187500.02, -187500.02, 0
39, -187500.02, -106985.93, 187500.00, -187500.02, 187500.00, -187500.02, -187500.02, -187500.02, 0
40, -187500.02, -107548.12, 187500.00, -187500.02, 187500.00, -187500.02, -187500.02, -187500.02, 0
41, -187500.02, -107641.51, 187500.00, -187500.02, 187500.00, -187500.02, -187500.02, -187500.02, 0
42, -187500.02, -106904.16, 187500.00, -187500.02, 187500.00, -187500.02, -187500.02, -187500.02, 0
43, -187500.02, -106908.14, 187500.00, -187500.02, 187500.00, -187500.02, -187500.02, -187500.02, 0
44, -187500.02, -107425.85, 187500.00, -187500.02, 187500.00, -187500.02, -187500.02, -187500.02, 0
45, -187500.02, -107699.77, 187500.00, -187500.02, 187500.00, -187500.02, -187500.02, -187500.02, 0
46, -187500.02, -106991.56, 187500.00, -187500.02, 187500.00, -187500.02, -187500.02, -187500.02, 0
47, -187500.02, -106836.22, 187500.00, -187500.02, 187500.00, -187500.02, -187500.02, -187500.02, 0
48, -187500.02, -107302.02, 187500.00, -187500.02, 187500.00, -187500.02, -187500.02, -187500.02, 0
49, -187500.02, -107707.29, 187500.00, -187500.02, 187500.00, -187500.02, -187500.02, -187500.02, 0
50, -187500.02, -107104.80, 187500.00, -187500.02, 187500.00, -187500.02, -187500.02, -187500.02, 0
51, -187500.02, -106790.95, 187500.00, -187500.02, 187500.00, -187500.02, -187500.02, -187500.02, 0
52, -187500.02, -107193.73, 187500.00, -187500.02, 187500.00, -187500.02, -187500.02, -187500.02, 0
53, -187500.02, -107700.18, 187500.00, -187500.02, 187500.00, -187500.02, -187500.02, -187500.02, 0
54, -187500.02, -107266.40, 187500.00, -187500.02, 187500.00, -187500.02, -187500.02, -187500.02, 0
55, -187500.02, -106790.57, 187500.00, -187500.02, 187500.00, -187500.02, -187500.02, -187500.02, 0
56, -187500.02, -107120.27, 187500.00, -187500.02, 187500.00, -187500.02, -187500.02, -187500.02, 0
57, -187500.02, -107657.77, 187500.00, -187500.02, 187500.00, -187500.02, -187500.02, -187500.02, 0
58, -187500.02, -107396.64, 187500.00, -187500.02, 187500.00, -187500.02, -187500.02, -187500.02, 0
59, -187500.02, -106773.52, 187500.00, -187500.02, 187500.00, -187500.02, -187500.02, -187500.02, 0
60, -187500.02, -107021.87, 187500.00, -187500.02, 187500.00, -187500.02, -187500.02, -187500.02, 0
61, -187500.02, -107592.51, 187500.00, -187500.02, 187500.00, -187500.02, -187500.02, -187500.02, 0
62, -187500.02, -107537.28, 187500.00, -187500.02, 187500.00, -187500.02, -187500.02, -187500.02, 0
63, -187500.02, -106829.66, 187500.00, -187500.02, 187500.00, -187500.02, -187500.02, -187500.02, 0
64, -187500.02, -106950.34, 187500.00, -187500.02, 187500.00, -187500.02, -187500.02, -187500.02, 0
65, -187500.02, -107498.38, 187500.00, -187500.02, 187500.00, -187500.02, -187500.02, -187500.02, 0
66, -187500.02, -107633.19, 187500.00, -187500.02, 187500.00, -187500.02, -187500.02, -187500.02, 0
67, -187500.02, -106893.70, 187500.00, -187500.02, 187500.00, -187500.02, -187500.02, -187500.02, 0
68, -187500.02, -106851.93, 187500.00, -187500.02, 187500.00, -187500.02, -187500.02, -187500.02, 0
69, -187500.02, -107353.13, 187500.00, -187500.02, 187500.00, -187500.02, -187500.02, -187500.02, 0
70, -187500.02, -107692.29, 187500.00, -187500.02, 187500.00, -187500.02, -187500.02, -187500.02, 0
71, -187500.02, -107015.74, 187500.00, -187500.02, 187500.00, -187500.02, -187500.02, -187500.02, 0
72, -187500.02, -106818.00, 187500.00, -187500.02, 187500.00, -187500.02, -187500.02, -187500.02, 0
73, -187500.02, -107280.68, 187500.00, -187500.02, 187500.00, -187500.02, -187500.02, -187500.02, 0
74, -187500.02, -107732.86, 187500.00, -187500.02, 187500.00, -187500.02, -187500.02, -187500.02, 0
75, -187500.02, -107171.16, 187500.00, -187500.02, 187500.00, -187500.02, -187500.02, -187500.02, 0
76, -187500.02, -106796.07, 187500.00, -187500.02, 187500.00, -187500.02, -187500.02, -187500.02, 0
77, -187500.02, -107185.33, 187500.00, -187500.02, 187500.00, -187500.02, -187500.02, -187500.02, 0
78, -187500.02, -107692.94, 187500.00, -187500.02, 187500.00, -187500.02, -187500.02, -187500.02, 0
79, -187500.02, -107291.90, 187500.00, -187500.02, 187500.00, -187500.02, -187500.02, -187500.02, 0
80, -187500.02, -106765.95, 187500.00, -187500.02, 187500.00, -187500.02, -187500.02, -187500.02, 0
81, -187500.02, -107082.51, 187500.00, -187500.02, 187500.00, -187500.02, -187500.02, -187500.02, 0
82, -187500.02, -107639.70, 187500.00, -187500.02, 187500.00, -187500.02, -187500.02, -187500.02, 0
83, -187500.02, -107438.57, 187500.00, -187500.02, 187500.00, -187500.02, -187500.02, -187500.02, 0
84, -187500.02, -106788.63, 187500.00, -187500.02, 187500.00, -187500.02, -187500.02, -187500.02, 0
85, -187500.02, -106994.04, 187500.00, -187500.02, 187500.00, -187500.02, -187500.02, -187500.02, 0
86, -187500.02, -107546.69, 187500.00, -187500.02, 187500.00, -187500.02, -187500.02, -187500.02, 0
87, -187500.02, -107546.66, 187500.00, -187500.02, 187500.00, -187500.02, -187500.02, -187500.02, 0
88, -187500.02, -106828.52, 187500.00, -187500.02, 187500.00, -187500.02, -187500.02, -187500.02, 0
89, -187500.02, -106911.67, 187500.00, -187500.02, 187500.00, -187500.02, -187500.02, -187500.02, 0
90, -187500.02, -107456.34, 187500.00, -187500.02, 187500.00, -187500.02, -187500.02, -187500.02, 0
91, -187500.02, -107660.80, 187500.00, -187500.02, 187500.00, -187500.02, -187500.02, -187500.02, 0
92, -187500.02, -106928.84, 187500.00, -187500.02, 187500.00, -187500.02, -187500.02, -187500.02, 0
93, -187500.02, -106837.22, 187500.00, -187500.02, 187500.00, -187500.02, -187500.02, -187500.02, 0
94, -187500.02, -107322.70, 187500.00, -187500.02, 187500.00, -187500.02, -187500.02, -187500.02, 0
95, -187500.02, -107694.75, 187500.00, -187500.02, 187500.00, -187500.02, -187500.02, -187500.02, 0
96, -187500.02, -107066.10, 187500.00, -187500.02, 187500.00, -187500.02, -187500.02, -187500.02, 0
97, -187500.02, -106816.37, 187500.00, -187500.02, 187500.00, -187500.02, -187500.02, -187500.02, 0
98, -187500.02, -107235.58, 187500.00, -187500.02, 187500.00, -187500.02, -187500.02, -187500.02, 0
99, -187500.02, -107695.30, 187500.00, -187500.02, 187500.00, -187500.02, -187500.02, -187500.02, 0
100, -187500.02, -107177.77, 187500.00, -187500.02, 187500.00, -187500.02, -187500.02, -187500.02, 0
101, -187500.02, -106792.66, 187500.00, -187500.02, 187500.00, -187500.02, -187500.02, -187500.02, 0
102, -187500.02, -107159.98, 187500.00, -187500.02, 187500.00, -187500.02, -187500.02, -187500.02, 0
103, -187500.02, -107683.13, 187500.00, -187500.02, 187500.00, -187500.02, -187500.02, -187500.02, 0
104, -187500.02, -107359.25, 187500.00, -187500.02, 187500.00, -187500.02, -187500.02, -187500.02, 0
105, -187500.02, -106781.27, 187500.00, -187500.02, 187500.00, -187500.02, -187500.02, -187500.02, 0
106, -187500.02, -107058.57, 187500.00, -187500.02, 187500.00, -187500.02, -187500.02, -187500.02, 0
107, -187500.02, -107624.52, 187500.00, -187500.02, 187500.00, -187500.02, -187500.02, -187500.02, 0
108, -187500.02, -107504.96, 187500.00, -187500.02, 187500.00, -187500.02, -187500.02, -187500.02, 0
109, -187500.02, -106830.59, 187500.00, -187500.02, 187500.00, -187500.02, -187500.02, -187500.02, 0
110, -187500.02, -106990.94, 187500.00, -187500.02, 187500.00, -187500.02, -187500.02, -187500.02, 0
111, -187500.02, -107539.36, 187500.00, -187500.02, 187500.00, -187500.02, -187500.02, -187500.02, 0
112, -187500.02, -107608.94, 187500.00, -187500.02, 187500.00, -187500.02, -187500.02, -187500.02, 0
113, -187500.02, -106872.13, 187500.00, -187500.02, 187500.00, -187500.02, -187500.02, -187500.02, 0
114, -187500.02, -106882.93, 187500.00, -187500.02, 187500.00, -187500.02, -187500.02, -187500.02, 0
115, -187500.02, -107412.91, 187500.00, -187500.02, 187500.00, -187500.02, -187500.02, -187500.02, 0
116, -187500.02, -107700.91, 187500.00, -187500.02, 187500.00, -187500.02, -187500.02, -187500.02, 0
117, -187500.02, -106991.00, 187500.00, -187500.02, 187500.00, -187500.02, -187500.02, -187500.02, 0
118, -187500.02, -106853.38, 187500.00, -187500.02, 187500.00, -187500.02, -187500.02, -187500.02, 0
119, -187500.02, -107337.01, 187500.00, -187500.02, 187500.00, -187500.02, -187500.02, -187500.02, 0
120, -187500.02, -107732.39, 187500.00, -187500.02, 187500.00, -187500.02, -187500.02, -187500.02, 0
121, -187500.02, -107117.06, 187500.00, -187500.02, 187500.00, -187500.02, -187500.02, -187500.02, 0
122, -187500.02, -106808.61, 187500.00, -187500.02, 187500.00, -187500.02, -187500.02, -187500.02, 0
123, -187500.02, -107223.93, 187500.00, -187500.02, 187500.00, -187500.02, -187500.02, -187500.02, 0
124, -187500.02, -107719.29, 187500.00, -187500.02, 187500.00, -187500.02, -187500.02, -187500.02, 0
125, -187500.02, -107261.15, 187500.00, -187500.02, 187500.00, -187500.02, -187500.02, -187500.02, 0
126, -187500.02, -106794.38, 187500.00, -187500.02, 187500.00, -187500.02, -187500.02, -187500.02, 0
127, -187500.02, -107136.58, 187500.00, -187500.02, 187500.00, -187500.02, -187500.02, -187500.02, 0
128, -187500.02, -107682.03, 187500.00, -187500.02, 187500.00, -187500.02, -187500.02, -187500.02, 0
129, -187500.02, -107400.89, 187500.00, -187500.02, 187500.00, -187500.02, -187500.02, -187500.02, 0
130, -187500.02, -106790.09, 187500.00, -187500.02, 187500.00, -187500.02, -187500.02, -187500.02, 0
131, -187500.02, -107034.21, 187500.00, -187500.02, 187500.00, -187500.02, -187500.02, -187500.02, 0
132, -187500.02, -107593.94, 187500.00, -187500.02, 187500.00, -187500.02, -187500.02, -187500.02, 0
133, -187500.02, -107528.98, 187500.00, -187500.02, 187500.00, -187500.02, -187500.02, -187500.02, 0
134, -187500.02, -106818.55, 187500.00, -187500.02, 187500.00, -187500.02, -187500.02, -187500.02, 0
135, -187500.02, -106943.57, 187500.00, -187500.02, 187500.00, -187500.02, -187500.02, -187500.02, 0
136, -187500.02, -107513.43, 187500.00, -187500.02, 187500.00, -187500.02, -187500.02, -187500.02, 0
137, -187500.02, -107653.93, 187500.00, -187500.02, 187500.00, -187500.02, -187500.02, -187500.02, 0
138, -187500.02, -106918.70, 187500.00, -187500.02, 187500.00, -187500.02, -187500.02, -187500.02, 0
139, -187500.02, -106900.95, 187500.00, -187500.02, 187500.00, -187500.02, -187500.02, -187500.02, 0
140, -187500.02, -107414.81, 187500.00, -187500.02, 187500.00, -187500.02, -187500.02, -187500.02, 0
141, -187500.02, -107706.03, 187500.00, -187500.02, 187500.00, -187500.02, -187500.02, -187500.02, 0
142, -187500.02, -107012.80, 187500.00, -187500.02, 187500.00, -187500.02, -187500.02, -187500.02, 0
143, -187500.02, -106821.38, 187500.00, -187500.02, 187500.00, -187500.02, -187500.02, -187500.02, 0
144, -187500.02, -107294.59, 187500.00, -187500.02, 187500.00, -187500.02, -187500.02, -187500.02, 0
145, -187500.02, -107727.85, 187500.00, -187500.02, 187500.00, -187500.02, -187500.02, -187500.02, 0
146, -187500.02, -107134.50, 187500.00, -187500.02, 187500.00, -187500.02, -187500.02, -187500.02, 0
147, -187500.02, -106780.34, 187500.00, -187500.02, 187500.00, -187500.02, -187500.02, -187500.02, 0
148, -187500.02, -107195.09, 187500.00, -187500.02, 187500.00, -187500.02, -187500.02, -187500.02, 0
149, -187500.02, -107718.17, 187500.00, -187500.02, 187500.00, -187500.02, -187500.02, -187500.02, 0
150, -187500.02, -107319.20, 187500.00, -187500.02, 187500.00, -187500.02, -187500.02, -187500.02, 0
151, -187500.02, -106800.01, 187500.00, -187500.02, 187500.00, -187500.02, -187500.02, -187500.02, 0
152, -187500.02, -107110.83, 187500.00, -187500.02, 187500.00, -187500.02, -187500.02, -187500.02, 0
153, -187500.02, -107657.62, 187500.00, -187500.02, 187500.00, -187500.02, -187500.02, -187500.02, 0
154, -187500.02, -107441.68, 187500.00, -187500.02, 187500.00, -187500.02, -187500.02, -187500.02, 0
155, -187500.02, -106809.51, 187500.00, -187500.02, 187500.00, -187500.02, -187500.02, -187500.02, 0
156, -187500.02, -107023.37, 187500.00, -187500.02, 187500.00, -187500.02, -187500.02, -187500.02, 0
157, -187500.02, -107582.63, 187500.00, -187500.02, 187500.00, -187500.02, -187500.02, -187500.02, 0
158, -187500.02, -107579.32, 187500.00, -187500.02, 187500.00, -187500.02, -187500.02, -187500.02, 0
159, -187500.02, -106864.91, 187500.00, -187500.02, 187500.00, -187500.02, -187500.02, -187500.02, 0
160, -187500.02, -106947.04, 187500.00, -187500.02, 187500.00, -187500.02, -187500.02, -187500.02, 0
161, -187500.02, -107471.23, 187500.00, -187500.02, 187500.00, -187500.02, -187500.02, -187500.02, 0
162, -187500.02, -107645.28, 187500.00, -187500.02, 187500.00, -187500.02, -187500.02, -187500.02, 0
163, -187500.02, -106917.73, 187500.00, -187500.02, 187500.00, -187500.02, -187500.02, -187500.02, 0
164, -187500.02, -106871.66, 187500.00, -187500.02, 187500.00, -187500.02, -187500.02, -187500.02, 0
165, -187500.02, -107380.64, 187500.00, -187500.02, 187500.00, -187500.02, -187500.02, -187500.02, 0
166, -187500.02, -107719.31, 187500.00, -187500.02, 187500.00, -187500.02, -187500.02, -187500.02, 0
167, -187500.02, -107055.51, 187500.00, -187500.02, 187500.00, -187500.02, -187500.02, -187500.02, 0
168, -187500.02, -106817.80, 187500.00, -187500.02, 187500.00, -187500.02, -187500.02, -187500.02, 0
169, -187500.02, -107245.48, 187500.00, -187500.02, 187500.00, -187500.02, -187500.02, -187500.02, 0
170, -187500.02, -107688.22, 187500.00, -187500.02, 187500.00, -187500.02, -187500.02, -187500.02, 0
171, -187500.02, -107186.94, 187500.00, -187500.02, 187500.00, -187500.02, -187500.02, -187500.02, 0
172, -187500.02, -106812.50, 187500.00, -187500.02, 187500.00, -187500.02, -187500.02, -187500.02, 0
173, -187500.02, -107182.31, 187500.00, -187500.02, 187500.00, -187500.02, -187500.02, -187500.02, 0
174, -187500.02, -107703.87, 187500.00, -187500.02, 187500.00, -187500.02, -187500.02, -187500.02, 0
175, -187500.02, -107352.36, 187500.00, -187500.02, 187500.00, -187500.02, -187500.02, -187500.02, 0
176, -187500.02, -106792.77, 187500.00, -187500.02, 187500.00, -187500.02, -187500.02, -187500.02, 0
177, -187500.02, -107079.91, 187500.00, -187500.02, 187500.00, -187500.02, -187500.02, -187500.02, 0
178, -187500.02, -107622.48, 187500.00, -187500.02, 187500.00, -187500.02, -187500.02, -187500.02, 0
179, -187500.02, -107456.27, 187500.00, -187500.02, 187500.00, -187500.02, -187500.02, -187500.02, 0
180, -187500.02, -106804.27, 187500.00, -187500.02, 187500.00, -187500.02, -187500.02, -187500.02, 0
181, -187500.02, -107004.86, 187500.00, -187500.02, 187500.00, -187500.02, -187500.02, -187500.02, 0
182, -187500.02, -107563.16, 187500.00, -187500.02, 187500.00, -187500.02, -187500.02, -187500.02, 0
183, -187500.02, -107623.91, 187500.00, -187500.02, 187500.00, -187500.02, -187500.02, -187500.02, 0
184, -187500.02, -106892.21, 187500.00, -187500.02, 187500.00, -187500.02, -187500.02, -187500.02, 0
185, -187500.02, -106928.41, 187500.00, -187500.02, 187500.00, -187500.02, -187500.02, -187500.02, 0
186, -187500.02, -107453.46, 187500.00, -187500.02, 187500.00, -187500.02, -187500.02, -187500.02, 0
187, -187500.02, -107690.48, 187500.00, -187500.02, 187500.00, -187500.02, -187500.02, -187500.02, 0
188, -187500.02, -106980.27, 187500.00, -187500.02, 187500.00, -187500.02, -187500.02, -187500.02, 0
189, -187500.02, -106867.64, 187500.00, -187500.02, 187500.00, -187500.02, -187500.02, -187500.02, 0
190, -187500.02, -107340.94, 187500.00, -187500.02, 187500.00, -187500.02, -187500.02, -187500.02, 0
191, -187500.02, -107714.75, 187500.00, -187500.02, 187500.00, -187500.02, -187500.02, -187500.02, 0
192, -187500.02, -107087.00, 187500.00, -187500.02, 187500.00, -187500.02, -187500.02, -187500.02, 0
193, -187500.02, -106804.01, 187500.00, -187500.02, 187500.00, -187500.02, -187500.02, -187500.02, 0
194, -187500.02, -107245.32, 187500.00, -187500.02, 187500.00, -187500.02, -187500.02, -187500.02, 0
195, -187500.02, -107748.95, 187500.00, -187500.02, 187500.00, -187500.02, -187500.02, -187500.02, 0
196, -187500.02, -107277.15, 187500.00, -187500.02, 187500.00, -187500.02, -187500.02, -187500.02, 0
197, -187500.02, -106810.09, 187500.00, -187500.02, 187500.00, -187500.02, -187500.02, -187500.02, 0
198, -187500.02, -107145.50, 187500.00, -187500.02, 187500.00, -187500.02, -187500.02, -187500.02, 0
199, -187500.02, -107680.17, 187500.00, -187500.02, 187500.00, -187500.02, -187500.02, -187500.02, 0
200, -187500.02, -107396.24, 187500.00, -187500.02, 187500.00, -187500.02, -187500.02, -187500.02, 0
201, -187500.02, -106798.29, 187500.00, -187500.02, 187500.00, -187500.02, -187500.02, -187500.02, 0
202, -187500.02, -107053.16, 187500.00, -187500.02, 187500.00, -187500.02, -187500.02, -187500.02, 0
203, -187500.02, -107608.94, 187500.00, -187500.02, 187500.00, -187500.02, -187500.02, -187500.02, 0
204, -187500.02, -107504.58, 187500.00, -187500.02, 187500.00, -187500.02, -187500.02, -187500.02, 0
205, -187500.02, -106814.78, 187500.00, -187500.02, 187500.00, -187500.02, -187500.02, -187500.02, 0
206, -187500.02, -106970.28, 187500.00, -187500.02, 187500.00, -187500.02, -187500.02, -187500.02, 0
207, -187500.02, -107535.20, 187500.00, -187500.02, 187500.00, -187500.02, -187500.02, -187500.02, 0
208, -187500.02, -107650.96, 187500.00, -187500.02, 187500.00, -187500.02, -187500.02, -187500.02, 0
209, -187500.02, -106917.02, 187500.00, -187500.02, 187500.00, -187500.02, -187500.02, -187500.02, 0
210, -187500.02, -106911.50, 187500.00, -187500.02, 187500.00, -187500.02, -187500.02, -187500.02, 0
211, -187500.02, -107423.46, 187500.00, -187500.02, 187500.00, -187500.02, -187500.02, -187500.02, 0
212, -187500.02, -107707.42, 187500.00, -187500.02, 187500.00, -187500.02, -187500.02, -187500.02, 0
213, -187500.02, -107013.04, 187500.00, -187500.02, 187500.00, -187500.02, -187500.02, -187500.02, 0
214, -187500.02, -106839.28, 187500.00, -187500.02, 187500.00, -187500.02, -187500.02, -187500.02, 0
215, -187500.02, -107300.28, 187500.00, -187500.02, 187500.00, -187500.02, -187500.02, -187500.02, 0
216, -187500.02, -107725.73, 187500.00, -187500.02, 187500.00, -187500.02, -187500.02, -187500.02, 0
217, -187500.02, -107137.36, 187500.00, -187500.02, 187500.00, -187500.02, -187500.02, -187500.02, 0
218, -187500.02, -106794.13, 187500.00, -187500.02, 187500.00, -187500.02, -187500.02, -187500.02, 0
219, -187500.02, -107198.56, 187500.00, -187500.02, 187500.00, -187500.02, -187500.02, -187500.02, 0
220, -187500.02, -107705.66, 187500.00, -187500.02, 187500.00, -187500.02, -187500.02, -187500.02, 0
221, -187500.02, -107273.10, 187500.00, -187500.02, 187500.00, -187500.02, -187500.02, -187500.02, 0
222, -187500.02, -106777.99, 187500.00, -187500.02, 187500.00, -187500.02, -187500.02, -187500.02, 0
223, -187500.02, -107112.98, 187500.00, -187500.02, 187500.00, -187500.02, -187500.02, -187500.02, 0
224, -187500.02, -107644.77, 187500.00, -187500.02, 187500.00, -187500.02, -187500.02, -187500.02, 0
225, -187500.02, -107410.66, 187500.00, -187500.02, 187500.00, -187500.02, -187500.02, -187500.02, 0
226, -187500.02, -106809.82, 187500.00, -187500.02, 187500.00, -187500.02, -187500.02, -187500.02, 0
227, -187500.02, -107032.29, 187500.00, -187500.02, 187500.00, -187500.02, -187500.02, -187500.02, 0
228, -187500.02, -107574.12, 187500.00, -187500.02, 187500.00, -187500.02, -187500.02, -187500.02, 0
229, -187500.02, -107557.41, 187500.00, -187500.02, 187500.00, -187500.02, -187500.02, -187500.02, 0
230, -187500.02, -106842.16, 187500.00, -187500.02, 187500.00, -187500.02, -187500.02, -187500.02, 0
231, -187500.02, -106925.98, 187500.00, -187500.02, 187500.00, -187500.02, -187500.02, -187500.02, 0
232, -187500.02, -107478.02, 187500.00, -187500.02, 187500.00, -187500.02, -187500.02, -187500.02, 0
233, -187500.02, -107667.26, 187500.00, -187500.02, 187500.00, -187500.02, -187500.02, -187500.02, 0
234, -187500.02, -106944.22, 187500.00, -187500.02, 187500.00, -187500.02, -187500.02, -187500.02, 0
235, -187500.02, -106889.32, 187500.00, -187500.02, 187500.00, -187500.02, -187500.02, -187500.02, 0
236, -187500.02, -107389.24, 187500.00, -187500.02, 187500.00, -187500.02, -187500.02, -187500.02, 0
237, -187500.02, -107713.03, 187500.00, -187500.02, 187500.00, -187500.02, -187500.02, -187500.02, 0
238, -187500.02, -107040.38, 187500.00, -187500.02, 187500.00, -187500.02, -187500.02, -187500.02, 0
239, -187500.02, -106818.36, 187500.00, -187500.02, 187500.00, -187500.02, -187500.02, -187500.02, 0
240, -187500.02, -107266.15, 187500.00, -187500.02, 187500.00, -187500.02, -187500.02, -187500.02, 0
241, -187500.02, -107725.66, 187500.00, -187500.02, 187500.00, -187500.02, -187500.02, -187500.02, 0
242, -187500.02, -107186.20, 187500.00, -187500.02, 187500.00, -187500.02, -187500.02, -187500.02, 0
243, -187500.02, -106775.62, 187500.00, -187500.02, 187500.00, -187500.02, -187500.02, -187500.02, 0
244, -187500.02, -107156.18, 187500.00, -187500.02, 187500.00, -187500.02, -187500.02, -187500.02, 0
245, -187500.02, -107690.92, 187500.00, -187500.02, 187500.00, -187500.02, -187500.02, -187500.02, 0
246, -187500.02, -107328.65, 187500.00, -187500.02, 187500.00, -187500.02, -187500.02, -187500.02, 0
247, -187500.02, -106785.66, 187500.00, -187500.02, 187500.00, -187500.02, -187500.02, -187500.02, 0
248, -187500.02, -107074.33, 187500.00, -187500.02, 187500.00, -187500.02, -187500.02, -187500.02, 0
249, -187500.02, -107634.51, 187500.00, -187500.02, 187500.00, -187500.02, -187500.02, -187500.02, 0
250, -187500.02, -107484.71, 187500.00, -187500.02, 187500.00, -187500.02, -187500.02, -187500.02, 0
251, -187500.02, -106821.40, 187500.00, -187500.02, 187500.00, -187500.02, -187500.02, -187500.02, 0
252, -187500.02, -106992.14, 187500.00, -187500.02, 187500.00, -187500.02, -187500.02, -187500.02, 0
253, -187500.02, -107546.84, 187500.00, -187500.02, 187500.00, -187500.02, -187500.02, -187500.02, 0
254, -187500.02, -107593.90, 187500.00, -187500.02, 187500.00, -187500.02, -187500.02, -187500.02, 0
255, -187500.02, -106864.63, 187500.00, -187500.02, 187500.00, -187500.02, -187500.02, -187500.02, 0
0, -187500.02, -106901.04, 187500.00, -187500.02, 187500.00, -187500.02, -187500.02, -187500.02, 0
1, -187500.02, -107426.84, 187500.00, -187500.02, 187500.00, -187500.02, -187500.02, -187500.02, 0
2, -187500.02, -107690.39, 187500.00, -187500.02, 187500.00, -187500.02, -187500.02, -187500.02, 0
3, -187500.02, -106977.99, 187500.00, -187500.02, 187500.00, -187500.02, -187500.02, -187500.02, 0
4, -187500.02, -106858.12, 187500.00, -187500.02, 187500.00, -187500.02, -187500.02, -187500.02, 0
5, -187500.02, -107328.63, 187500.00, -187500.02, 187500.00, -187500.02, -187500.02, -187500.02, 0
6, -187500.02, -107712.78, 187500.00, -187500.02, 187500.00, -187500.02, -187500.02, -187500.02, 0
7, -187500.02, -107085.15, 187500.00, -187500.02, 187500.00, -187500.02, -187500.02, -187500.02, 0
8, -187500.02, -106797.55, 187500.00, -187500.02, 187500.00, -187500.02, -187500.02, -187500.02, 0
9, -187500.02, -107226.16, 187500.00, -187500.02, 187500.00, -187500.02, -187500.02, -187500.02, 0
10, -187500.02, -107700.67, 187500.00, -187500.02, 187500.00, -187500.02, -187500.02, -187500.02, 0
11, -187500.02, -107207.26, 187500.00, -187500.02, 187500.00, -187500.02, -187500.02, -187500.02, 0
12, -187500.02, -106795.38, 187500.00, -187500.02, 187500.00, -187500.02, -187500.02, -187500.02, 0
13, -187500.02, -107157.32, 187500.00, -187500.02, 187500.00, -187500.02, -187500.02, -187500.02, 0
14, -187500.02, -107697.77, 187500.00, -187500.02, 187500.00, -187500.02, -187500.02, -187500.02, 0
15, -187500.02, -107393.78, 187500.00, -187500.02, 187500.00, -187500.02, -187500.02, -187500.02, 0
16, -187500.02, -106803.38, 187500.00, -187500.02, 187500.00, -187500.02, -187500.02, -187500.02, 0
17, -187500.02, -107057.55, 187500.00, -187500.02, 187500.00, -187500.02, -187500.02, -187500.02, 0
18, -187500.02, -107608.31, 187500.00, -187500.02, 187500.00, -187500.02, -187500.02, -187500.02, 0
19, -187500.02, -107508.11, 187500.00, -187500.02, 187500.00, -187500.02, -187500.02, -187500.02, 0
20, -187500.02, -106829.51, 187500.00, -187500.02, 187500.00, -187500.02, -187500.02, -187500.02, 0
21, -187500.02, -106980.45, 187500.00, -187500.02, 187500.00, -187500.02, -187500.02, -187500.02, 0
22, -187500.02, -107530.87, 187500.00, -187500.02, 187500.00, -187500.02, -187500.02, -187500.02, 0
23, -187500.02, -107622.98, 187500.00, -187500.02, 187500.00, -187500.02, -187500.02, -187500.02, 0
24, -187500.02, -106888.77, 187500.00, -187500.02, 187500.00, -187500.02, -187500.02, -187500.02, 0
25, -187500.02, -106898.48, 187500.00, -187500.02, 187500.00, -187500.02, -187500.02, -187500.02, 0
26, -187500.02, -107407.08, 187500.00, -187500.02, 187500.00, -187500.02, -187500.02, -187500.02, 0
27, -187500.02, -107685.70, 187500.00, -187500.02, 187500.00, -187500.02, -187500.02, -187500.02, 0
28, -187500.02, -106995.63, 187500.00, -187500.02, 187500.00, -187500.02, -187500.02, -187500.02, 0
29, -187500.02, -106840.09, 187500.00, -187500.02, 187500.00, -187500.02, -187500.02, -187500.02, 0
30, -187500.02, -107304.73, 187500.00, -187500.02, 187500.00, -187500.02, -187500.02, -187500.02, 0
31, -187500.02, -107728.72, 187500.00, -187500.02, 187500.00, -187500.02, -187500.02, -187500.02, 0
32, -187500.02, -107151.06, 187500.00, -187500.02, 187500.00, -187500.02, -187500.02, -187500.02, 0
33, -187500.02, -106822.38, 187500.00, -187500.02, 187500.00, -187500.02, -187500.02, -187500.02, 0
34, -187500.02, -107227.10, 187500.00, -187500.02, 187500.00, -187500.02, -187500.02, -187500.02, 0
35, -187500.02, -107721.84, 187500.00, -187500.02, 187500.00, -187500.02, -187500.02, -187500.02, 0
36, -187500.02, -107274.55, 187500.00, -187500.02, 187500.00, -187500.02, -187500.02, -187500.02, 0
37, -187500.02, -106782.80, 187500.00, -187500.02, 187500.00, -187500.02, -187500.02, -187500.02, 0
38, -187500.02, -107118.54, 187500.00, -187500.02, 187500.00, -187500.02, -187500.02, -187500.02, 0
39, -187500.02, -107675.41, 187500.00, -187500.02, 187500.00, -187500.02, -187500.02, -187500.02, 0
40, -187500.02, -107433.86, 187500.00, -187500.02, 187500.00, -187500.02, -187500.02, -187500.02, 0
41, -187500.02, -106805.30, 187500.00, -187500.02, 187500.00, -187500.02, -187500.02, -187500.02, 0
42, -187500.02, -107030.52, 187500.00, -187500.02, 187500.00, -187500.02, -187500.02, -187500.02, 0
43, -187500.02, -107580.77, 187500.00, -187500.02, 187500.00, -187500.02, -187500.02, -187500.02, 0
44, -187500.02, -107541.10, 187500.00, -187500.02, 187500.00, -187500.02, -187500.02, -187500.02, 0
45, -187500.02, -106826.25, 187500.00, -187500.02, 187500.00, -187500.02, -187500.02, -187500.02, 0
46, -187500.02, -106922.31, 187500.00, -187500.02, 187500.00, -187500.02, -187500.02, -187500.02, 0
47, -187500.02, -107473.38, 187500.00, -187500.02, 187500.00, -187500.02, -187500.02, -187500.02, 0
48, -187500.02, -107654.29, 187500.00, -187500.02, 187500.00, -187500.02, -187500.02, -187500.02, 0
49, -187500.02, -106932.17, 187500.00, -187500.02, 187500.00, -187500.02, -187500.02, -187500.02, 0
50, -187500.02, -106873.07, 187500.00, -187500.02, 187500.00, -187500.02, -187500.02, -187500.02, 0
51, -187500.02, -107382.90, 187500.00, -187500.02, 187500.00, -187500.02, -187500.02, -187500.02, 0
52, -187500.02, -107716.45, 187500.00, -187500.02, 187500.00, -187500.02, -187500.02, -187500.02, 0
53, -187500.02, -107033.25, 187500.00, -187500.02, 187500.00, -187500.02, -187500.02, -187500.02, 0
54, -187500.02, -106827.30, 187500.00, -187500.02, 187500.00, -187500.02, -187500.02, -187500.02, 0
55, -187500.02, -107288.73, 187500.00, -187500.02, 187500.00, -187500.02, -187500.02, -187500.02, 0
56, -187500.02, -107731.41, 187500.00, -187500.02, 187500.00, -187500.02, -187500.02, -187500.02, 0
57, -187500.02, -107167.11, 187500.00, -187500.02, 187500.00, -187500.02, -187500.02, -187500.02, 0
58, -187500.02, -106779.60, 187500.00, -187500.02, 187500.00, -187500.02, -187500.02, -187500.02, 0
59, -187500.02, -107163.80, 187500.00, -187500.02, 187500.00, -187500.02, -187500.02, -187500.02, 0
60, -187500.02, -107686.09, 187500.00, -187500.02, 187500.00, -187500.02, -187500.02, -187500.02, 0
61, -187500.02, -107324.38, 187500.00, -187500.02, 187500.00, -187500.02, -187500.02, -187500.02, 0
62, -187500.02, -106792.38, 187500.00, -187500.02, 187500.00, -187500.02, -187500.02, -187500.02, 0
63, -187500.02, -107077.50, 187500.00, -187500.02, 187500.00, -187500.02, -187500.02, -187500.02, 0
64, -187500.02, -107610.32, 187500.00, -187500.02, 187500.00, -187500.02, -187500.02, -187500.02, 0
65, -187500.02, -107437.26, 187500.00, -187500.02, 187500.00, -187500.02, -187500.02, -187500.02, 0
66, -187500.02, -106808.16, 187500.00, -187500.02, 187500.00, -187500.02, -187500.02, -187500.02, 0
67, -187500.02, -106995.47, 187500.00, -187500.02, 187500.00, -187500.02, -187500.02, -187500.02, 0
68, -187500.02, -107542.04, 187500.00, -187500.02, 187500.00, -187500.02, -187500.02, -187500.02, 0
69, -187500.02, -107579.66, 187500.00, -187500.02, 187500.00, -187500.02, -187500.02, -187500.02, 0
70, -187500.02, -106863.82, 187500.00, -187500.02, 187500.00, -187500.02, -187500.02, -187500.02, 0
71, -187500.02, -106915.37, 187500.00, -187500.02, 187500.00, -187500.02, -187500.02, -187500.02, 0
72, -187500.02, -107439.63, 187500.00, -187500.02, 187500.00, -187500.02, -187500.02, -187500.02, 0
73, -187500.02, -107656.64, 187500.00, -187500.02, 187500.00, -187500.02, -187500.02, -187500.02, 0
74, -187500.02, -106944.09, 187500.00, -187500.02, 187500.00, -187500.02, -187500.02, -187500.02, 0
75, -187500.02, -106850.09, 187500.00, -187500.02, 187500.00, -187500.02, -187500.02, -187500.02, 0
76, -187500.02, -107328.36, 187500.00, -187500.02, 187500.00, -187500.02, -187500.02, -187500.02, 0
77, -187500.02, -107699.13, 187500.00, -187500.02, 187500.00, -187500.02, -187500.02, -187500.02, 0
78, -187500.02, -107063.89, 187500.00, -187500.02, 187500.00, -187500.02, -187500.02, -187500.02, 0
79, -187500.02, -106802.04, 187500.00, -187500.02, 187500.00, -187500.02, -187500.02, -187500.02, 0
80, -187500.02, -107230.34, 187500.00, -187500.02, 187500.00, -187500.02, -187500.02, -187500.02, 0
81, -187500.02, -107708.96, 187500.00, -187500.02, 187500.00, -187500.02, -187500.02, -187500.02, 0
82, -187500.02, -107209.52, 187500.00, -187500.02, 187500.00, -187500.02, -187500.02, -187500.02, 0
83, -187500.02, -106766.08, 187500.00, -187500.02, 187500.00, -187500.02, -187500.02, -187500.02, 0
84, -187500.02, -107116.09, 187500.00, -187500.02, 187500.00, -187500.02, -187500.02, -187500.02, 0
85, -187500.02, -107659.16, 187500.00, -187500.02, 187500.00, -187500.02, -187500.02, -187500.02, 0
86, -187500.02, -107355.80, 187500.00, -187500.02, 187500.00, -187500.02, -187500.02, -187500.02, 0
87, -187500.02, -106770.57, 187500.00, -187500.02, 187500.00, -187500.02, -187500.02, -187500.02, 0
88, -187500.02, -107050.08, 187500.00, -187500.02, 187500.00, -187500.02, -187500.02, -187500.02, 0
89, -187500.02, -107608.73, 187500.00, -187500.02, 187500.00, -187500.02, -187500.02, -187500.02, 0
90, -187500.02, -107490.59, 187500.00, -187500.02, 187500.00, -187500.02, -187500.02, -187500.02, 0
91, -187500.02, -106808.48, 187500.00, -187500.02, 187500.00, -187500.02, -187500.02, -187500.02, 0
92, -187500.02, -106958.15, 187500.00, -187500.02, 187500.00, -187500.02, -187500.02, -187500.02, 0
93, -187500.02, -107511.15, 187500.00, -187500.02, 187500.00, -187500.02, -187500.02, -187500.02, 0
94, -187500.02, -107608.76, 187500.00, -187500.02, 187500.00, -187500.02, -187500.02, -187500.02, 0
95, -187500.02, -106895.00, 187500.00, -187500.02, 187500.00, -187500.02, -187500.02, -187500.02, 0
96, -187500.02, -106915.79, 187500.00, -187500.02, 187500.00, -187500.02, -187500.02, -187500.02, 0
97, -187500.02, -107425.07, 187500.00, -187500.02, 187500.00, -187500.02, -187500.02, -187500.02, 0
98, -187500.02, -107683.37, 187500.00, -187500.02, 187500.00, -187500.02, -187500.02, -187500.02, 0
99, -187500.02, -106978.44, 187500.00, -187500.02, 187500.00, -187500.02, -187500.02, -187500.02, 0
100, -187500.02, -106843.19, 187500.00, -187500.02, 187500.00, -187500.02, -187500.02, -187500.02, 0
101, -187500.02, -107313.72, 187500.00, -187500.02, 187500.00, -187500.02, -187500.02, -187500.02, 0
102, -187500.02, -107718.30, 187500.00, -187500.02, 187500.00, -187500.02, -187500.02, -187500.02, 0
103, -187500.02, -107098.52, 187500.00, -187500.02, 187500.00, -187500.02, -187500.02, -187500.02, 0
104, -187500.02, -106775.30, 187500.00, -187500.02, 187500.00, -187500.02, -187500.02, -187500.02, 0
105, -187500.02, -107207.34, 187500.00, -187500.02, 187500.00, -187500.02, -187500.02, -187500.02, 0
106, -187500.02, -107721.57, 187500.00, -187500.02, 187500.00, -187500.02, -187500.02, -187500.02, 0
107, -187500.02, -107263.49, 187500.00, -187500.02, 187500.00, -187500.02, -187500.02, -187500.02, 0
108, -187500.02, -106781.12, 187500.00, -187500.02, 187500.00, -187500.02, -187500.02, -187500.02, 0
109, -187500.02, -107116.10, 187500.00, -187500.02, 187500.00, -187500.02, -187500.02, -187500.02, 0
110, -187500.02, -107658.76, 187500.00, -187500.02, 187500.00, -187500.02, -187500.02, -187500.02, 0
111, -187500.02, -107403.23, 187500.00, -187500.02, 187500.00, -187500.02, -187500.02, -187500.02, 0
112, -187500.02, -106790.38, 187500.00, -187500.02, 187500.00, -187500.02, -187500.02, -187500.02, 0
113, -187500.02, -107025.91, 187500.00, -187500.02, 187500.00, -187500.02, -187500.02, -187500.02, 0
114, -187500.02, -107580.66, 187500.00, -187500.02, 187500.00, -187500.02, -187500.02, -187500.02, 0
115, -187500.02, -107526.51, 187500.00, -187500.02, 187500.00, -187500.02, -187500.02, -187500.02, 0
116, -187500.02, -106822.72, 187500.00, -187500.02, 187500.00, -187500.02, -187500.02, -187500.02, 0
117, -187500.02, -106943.02, 187500.00, -187500.02, 187500.00, -187500.02, -187500.02, -187500.02, 0
118, -187500.02, -107496.82, 187500.00, -187500.02, 187500.00, -187500.02, -187500.02, -187500.02, 0
119, -187500.02, -107657.33, 187500.00, -187500.02, 187500.00, -187500.02, -187500.02, -187500.02, 0
120, -187500.02, -106927.92, 187500.00, -187500.02, 187500.00, -187500.02, -187500.02, -187500.02, 0
121, -187500.02, -106885.37, 187500.00, -187500.02, 187500.00, -187500.02, -187500.02, -187500.02, 0
122, -187500.02, -107388.66, 187500.00, -187500.02, 187500.00, -187500.02, -187500.02, -187500.02, 0
123, -187500.02, -107692.87, 187500.00, -187500.02, 187500.00, -187500.02, -187500.02, -187500.02, 0
124, -187500.02, -106999.90, 187500.00, -187500.02, 187500.00, -187500.02, -187500.02, -187500.02, 0
125, -187500.02, -106812.63, 187500.00, -187500.02, 187500.00, -187500.02, -187500.02, -187500.02, 0
126, -187500.02, -107285.40, 187500.00, -187500.02, 187500.00, -187500.02, -187500.02, -187500.02, 0
127, -187500.02, -107731.88, 187500.00, -187500.02, 187500.00, -187500.02, -187500.02, -187500.02, 0
128, -187500.02, -107157.45, 187500.00, -187500.02, 187500.00, -187500.02, -187500.02, -187500.02, 0
129, -187500.02, -106776.05, 187500.00, -187500.02, 187500.00, -187500.02, -187500.02, -187500.02, 0
130, -187500.02, -107171.83, 187500.00, -187500.02, 187500.00, -187500.02, -187500.02, -187500.02, 0
131, -187500.02, -107697.45, 187500.00, -187500.02, 187500.00, -187500.02, -187500.02, -187500.02, 0
132, -187500.02, -107298.56, 187500.00, -187500.02, 187500.00, -187500.02, -187500.02, -187500.02, 0
133, -187500.02, -106772.78, 187500.00, -187500.02, 187500.00, -187500.02, -187500.02, -187500.02, 0
134, -187500.02, -107092.77, 187500.00, -187500.02, 187500.00, -187500.02, -187500.02, -187500.02, 0
135, -187500.02, -107651.90, 187500.00, -187500.02, 187500.00, -187500.02, -187500.02, -187500.02, 0
136, -187500.02, -107448.90, 187500.00, -187500.02, 187500.00, -187500.02, -187500.02, -187500.02, 0
137, -187500.02, -106793.52, 187500.00, -187500.02, 187500.00, -187500.02, -187500.02, -187500.02, 0
138, -187500.02, -106997.55, 187500.00, -187500.02, 187500.00, -187500.02, -187500.02, -187500.02, 0
139, -187500.02, -107572.64, 187500.00, -187500.02, 187500.00, -187500.02, -187500.02, -187500.02, 0
140, -187500.02, -107594.45, 187500.00, -187500.02, 187500.00, -187500.02, -187500.02, -187500.02, 0
141, -187500.02, -106867.04, 187500.00, -187500.02, 187500.00, -187500.02, -187500.02, -187500.02, 0
142, -187500.02, -106939.15, 187500.00, -187500.02, 187500.00, -187500.02, -187500.02, -187500.02, 0
143, -187500.02, -107471.68, 187500.00, -187500.02, 187500.00, -187500.02, -187500.02, -187500.02, 0
144, -187500.02, -107668.82, 187500.00, -187500.02, 187500.00, -187500.02, -187500.02, -187500.02, 0
145, -187500.02, -106948.98, 187500.00, -187500.02, 187500.00, -187500.02, -187500.02, -187500.02, 0
146, -187500.02, -106860.05, 187500.00, -187500.02, 187500.00, -187500.02, -187500.02, -187500.02, 0
147, -187500.02, -107353.70, 187500.00, -187500.02, 187500.00, -187500.02, -187500.02, -187500.02, 0
148, -187500.02, -107728.63, 187500.00, -187500.02, 187500.00, -187500.02, -187500.02, -187500.02, 0
149, -187500.02, -107087.36, 187500.00, -187500.02, 187500.00, -187500.02, -187500.02, -187500.02, 0
150, -187500.02, -106822.72, 187500.00, -187500.02, 187500.00, -187500.02, -187500.02, -187500.02, 0
151, -187500.02, -107249.86, 187500.00, -187500.02, 187500.00, -187500.02, -187500.02, -187500.02, 0
152, -187500.02, -107716.98, 187500.00, -187500.02, 187500.00, -187500.02, -187500.02, -187500.02, 0
153, -187500.02, -107212.10, 187500.00, -187500.02, 187500.00, -187500.02, -187500.02, -187500.02, 0
154, -187500.02, -106793.79, 187500.00, -187500.02, 187500.00, -187500.02, -187500.02, -187500.02, 0
155, -187500.02, -107164.34, 187500.00, -187500.02, 187500.00, -187500.02, -187500.02, -187500.02, 0
156, -187500.02, -107711.51, 187500.00, -187500.02, 187500.00, -187500.02, -187500.02, -187500.02, 0
157, -187500.02, -107373.35, 187500.00, -187500.02, 187500.00, -187500.02, -187500.02, -187500.02, 0
158, -187500.02, -106793.19, 187500.00, -187500.02, 187500.00, -187500.02, -187500.02, -187500.02, 0
159, -187500.02, -107069.57, 187500.00, -187500.02, 187500.00, -187500.02, -187500.02, -187500.02, 0
160, -187500.02, -107621.09, 187500.00, -187500.02, 187500.00, -187500.02, -187500.02, -187500.02, 0
161, -187500.02, -107504.87, 187500.00, -187500.02, 187500.00, -187500.02, -187500.02, -187500.02, 0
162, -187500.02, -106851.33, 187500.00, -187500.02, 187500.00, -187500.02, -187500.02, -187500.02, 0
163, -187500.02, -107011.74, 187500.00, -187500.02, 187500.00, -187500.02, -187500.02, -187500.02, 0
164, -187500.02, -107553.95, 187500.00, -187500.02, 187500.00, -187500.02, -187500.02, -187500.02, 0
165, -187500.02, -107626.95, 187500.00, -187500.02, 187500.00, -187500.02, -187500.02, -187500.02, 0
166, -187500.02, -106903.52, 187500.00, -187500.02, 187500.00, -187500.02, -187500.02, -187500.02, 0
167, -187500.02, -106929.09, 187500.00, -187500.02, 187500.00, -187500.02, -187500.02, -187500.02, 0
168, -187500.02, -107448.25, 187500.00, -187500.02, 187500.00, -187500.02, -187500.02, -187500.02, 0
169, -187500.02, -107705.85, 187500.00, -187500.02, 187500.00, -187500.02, -187500.02, -187500.02, 0
170, -187500.02, -106995.49, 187500.00, -187500.02, 187500.00, -187500.02, -187500.02, -187500.02, 0
171, -187500.02, -106851.77, 187500.00, -187500.02, 187500.00, -187500.02, -187500.02, -187500.02, 0
172, -187500.02, -107321.79, 187500.00, -187500.02, 187500.00, -187500.02, -187500.02, -187500.02, 0
173, -187500.02, -107722.64, 187500.00, -187500.02, 187500.00, -187500.02, -187500.02, -187500.02, 0
174, -187500.02, -107121.54, 187500.00, -187500.02, 187500.00, -187500.02, -187500.02, -187500.02, 0
175, -187500.02, -106821.51, 187500.00, -187500.02, 187500.00, -187500.02, -187500.02, -187500.02, 0
176, -187500.02, -107233.77, 187500.00, -187500.02, 187500.00, -187500.02, -187500.02, -187500.02, 0
177, -187500.02, -107727.34, 187500.00, -187500.02, 187500.00, -187500.02, -187500.02, -187500.02, 0
178, -187500.02, -107264.61, 187500.00, -187500.02, 187500.00, -187500.02, -187500.02, -187500.02, 0
179, -187500.02, -106795.47, 187500.00, -187500.02, 187500.00, -187500.02, -187500.02, -187500.02, 0
180, -187500.02, -107139.22, 187500.00, -187500.02, 187500.00, -187500.02, -187500.02, -187500.02, 0
181, -187500.02, -107696.47, 187500.00, -187500.02, 187500.00, -187500.02, -187500.02, -187500.02, 0
182, -187500.02, -107421.83, 187500.00, -187500.02, 187500.00, -187500.02, -187500.02, -187500.02, 0
183, -187500.02, -106797.81, 187500.00, -187500.02, 187500.00, -187500.02, -187500.02, -187500.02, 0
184, -187500.02, -107035.26, 187500.00, -187500.02, 187500.00, -187500.02, -187500.02, -187500.02, 0
185, -187500.02, -107610.10, 187500.00, -187500.02, 187500.00, -187500.02, -187500.02, -187500.02, 0
186, -187500.02, -107555.43, 187500.00, -187500.02, 187500.00, -187500.02, -187500.02, -187500.02, 0
187, -187500.02, -106847.41, 187500.00, -187500.02, 187500.00, -187500.02, -187500.02, -187500.02, 0
188, -187500.02, -106969.27, 187500.00, -187500.02, 187500.00, -187500.02, -187500.02, -187500.02, 0
189, -187500.02, -107516.00, 187500.00, -187500.02, 187500.00, -187500.02, -187500.02, -187500.02, 0
190, -187500.02, -107647.20, 187500.00, -187500.02, 187500.00, -187500.02, -187500.02, -187500.02, 0
191, -187500.02, -106913.40, 187500.00, -187500.02, 187500.00, -187500.02, -187500.02, -187500.02, 0
192, -187500.02, -106900.14, 187500.00, -187500.02, 187500.00, -187500.02, -187500.02, -187500.02, 0
193, -187500.02, -107414.86, 187500.00, -187500.02, 187500.00, -187500.02, -187500.02, -187500.02, 0
194, -187500.02, -107726.38, 187500.00, -187500.02, 187500.00, -187500.02, -187500.02, -187500.02, 0
195, -187500.02, -107059.80, 187500.00, -187500.02, 187500.00, -187500.02, -187500.02, -187500.02, 0
196, -187500.02, -106867.91, 187500.00, -187500.02, 187500.00, -187500.02, -187500.02, -187500.02, 0
197, -187500.02, -107313.88, 187500.00, -187500.02, 187500.00, -187500.02, -187500.02, -187500.02, 0
198, -187500.02, -107738.89, 187500.00, -187500.02, 187500.00, -187500.02, -187500.02, -187500.02, 0
199, -187500.02, -107163.94, 187500.00, -187500.02, 187500.00, -187500.02, -187500.02, -187500.02, 0
200, -187500.02, -106801.80, 187500.00, -187500.02, 187500.00, -187500.02, -187500.02, -187500.02, 0
201, -187500.02, -107209.94, 187500.00, -187500.02, 187500.00, -187500.02, -187500.02, -187500.02, 0
202, -187500.02, -107736.84, 187500.00, -187500.02, 187500.00, -187500.02, -187500.02, -187500.02, 0
203, -187500.02, -107331.40, 187500.00, -187500.02, 187500.00, -187500.02, -187500.02, -187500.02, 0
204, -187500.02, -106805.10, 187500.00, -187500.02, 187500.00, -187500.02, -187500.02, -187500.02, 0
205, -187500.02, -107119.39, 187500.00, -187500.02, 187500.00, -187500.02, -187500.02, -187500.02, 0
206, -187500.02, -107670.23, 187500.00, -187500.02, 187500.00, -187500.02, -187500.02, -187500.02, 0
207, -187500.02, -107456.95, 187500.00, -187500.02, 187500.00, -187500.02, -187500.02, -187500.02, 0
208, -187500.02, -106812.66, 187500.00, -187500.02, 187500.00, -187500.02, -187500.02, -187500.02, 0
209, -187500.02, -107013.02, 187500.00, -187500.02, 187500.00, -187500.02, -187500.02, -187500.02, 0
210, -187500.02, -107576.38, 187500.00, -187500.02, 187500.00, -187500.02, -187500.02, -187500.02, 0
211, -187500.02, -107578.54, 187500.00, -187500.02, 187500.00, -187500.02, -187500.02, -187500.02, 0
212, -187500.02, -106867.51, 187500.00, -187500.02, 187500.00, -187500.02, -187500.02, -187500.02, 0
213, -187500.02, -106945.41, 187500.00, -187500.02, 187500.00, -187500.02, -187500.02, -187500.02, 0
214, -187500.02, -107488.59, 187500.00, -187500.02, 187500.00, -187500.02, -187500.02, -187500.02, 0
215, -187500.02, -107689.05, 187500.00, -187500.02, 187500.00, -187500.02, -187500.02, -187500.02, 0
216, -187500.02, -106951.40, 187500.00, -187500.02, 187500.00, -187500.02, -187500.02, -187500.02, 0
217, -187500.02, -106874.68, 187500.00, -187500.02, 187500.00, -187500.02, -187500.02, -187500.02, 0
218, -187500.02, -107377.91, 187500.00, -187500.02, 187500.00, -187500.02, -187500.02, -187500.02, 0
219, -187500.02, -107734.24, 187500.00, -187500.02, 187500.00, -187500.02, -187500.02, -187500.02, 0
220, -187500.02, -107080.09, 187500.00, -187500.02, 187500.00, -187500.02, -187500.02, -187500.02, 0
221, -187500.02, -106846.50, 187500.00, -187500.02, 187500.00, -187500.02, -187500.02, -187500.02, 0
222, -187500.02, -107287.66, 187500.00, -187500.02, 187500.00, -187500.02, -187500.02, -187500.02, 0
223, -187500.02, -107747.45, 187500.00, -187500.02, 187500.00, -187500.02, -187500.02, -187500.02, 0
224, -187500.02, -107212.42, 187500.00, -187500.02, 187500.00, -187500.02, -187500.02, -187500.02, 0
225, -187500.02, -106796.20, 187500.00, -187500.02, 187500.00, -187500.02, -187500.02, -187500.02, 0
226, -187500.02, -107172.16, 187500.00, -187500.02, 187500.00, -187500.02, -187500.02, -187500.02, 0
227, -187500.02, -107699.53, 187500.00, -187500.02, 187500.00, -187500.02, -187500.02, -187500.02, 0
228, -187500.02, -107359.02, 187500.00, -187500.02, 187500.00, -187500.02, -187500.02, -187500.02, 0
229, -187500.02, -106800.37, 187500.00, -187500.02, 187500.00, -187500.02, -187500.02, -187500.02, 0
230, -187500.02, -107082.20, 187500.00, -187500.02, 187500.00, -187500.02, -187500.02, -187500.02, 0
231, -187500.02, -107633.73, 187500.00, -187500.02, 187500.00, -187500.02, -187500.02, -187500.02, 0
232, -187500.02, -107491.70, 187500.00, -187500.02, 187500.00, -187500.02, -187500.02, -187500.02, 0
233, -187500.02, -106818.47, 187500.00, -187500.02, 187500.00, -187500.02, -187500.02, -187500.02, 0
234, -187500.02, -106989.91, 187500.00, -187500.02, 187500.00, -187500.02, -187500.02, -187500.02, 0
235, -187500.02, -107551.13, 187500.00, -187500.02, 187500.00, -187500.02, -187500.02, -187500.02, 0
236, -187500.02, -107614.52, 187500.00, -187500.02, 187500.00, -187500.02, -187500.02, -187500.02, 0
237, -187500.02, -106894.91, 187500.00, -187500.02, 187500.00, -187500.02, -187500.02, -187500.02, 0
238, -187500.02, -106937.80, 187500.00, -187500.02, 187500.00, -187500.02, -187500.02, -187500.02, 0
239, -187500.02, -107457.17, 187500.00, -187500.02, 187500.00, -187500.02, -187500.02, -187500.02, 0
240, -187500.02, -107702.05, 187500.00, -187500.02, 187500.00, -187500.02, -187500.02, -187500.02, 0
241, -187500.02, -107004.97, 187500.00, -187500.02, 187500.00, -187500.02, -187500.02, -187500.02, 0
242, -187500.02, -106884.54, 187500.00, -187500.02, 187500.00, -187500.02, -187500.02, -187500.02, 0
243, -187500.02, -107366.63, 187500.00, -187500.02, 187500.00, -187500.02, -187500.02, -187500.02, 0
244, -187500.02, -107756.95, 187500.00, -187500.02, 187500.00, -187500.02, -187500.02, -187500.02, 0
245, -187500.02, -107127.23, 187500.00, -187500.02, 187500.00, -187500.02, -187500.02, -187500.02, 0
246, -187500.02, -106837.29, 187500.00, -187500.02, 187500.00, -187500.02, -187500.02, -187500.02, 0
247, -187500.02, -107270.82, 187500.00, -187500.02, 187500.00, -187500.02, -187500.02, -187500.02, 0
248, -187500.02, -107768.53, 187500.00, -187500.02, 187500.00, -187500.02, -187500.02, -187500.02, 0
249, -187500.02, -107283.01, 187500.00, -187500.02, 187500.00, -187500.02, -187500.02, -187500.02, 0
250, -187500.02, -106809.33, 187500.00, -187500.02, 187500.00, -187500.02, -187500.02, -187500.02, 0
251, -187500.02, -107148.13, 187500.00, -187500.02, 187500.00, -187500.02, -187500.02, -187500.02, 0
252, -187500.02, -107689.02, 187500.00, -187500.02, 187500.00, -187500.02, -187500.02, -187500.02, 0
253, -187500.02, -107394.45, 187500.00, -187500.02, 187500.00, -187500.02, -187500.02, -187500.02, 0
254, -187500.02, -106803.70, 187500.00, -187500.02, 187500.00, -187500.02, -187500.02, -187500.02, 0
255, -187500.02, -107080.12, 187500.00, -187500.02, 187500.00, -187500.02, -187500.02, -187500.02, 0
0, -187500.02, -107641.39, 187500.00, -187500.02, 187500.00, -187500.02, -187500.02, -187500.02, 0
1, -187500.02, -107547.80, 187500.00, -187500.02, 187500.00, -187500.02, -187500.02, -187500.02, 0
2, -187500.02, -106842.20, 187500.00, -187500.02, 187500.00, -187500.02, -187500.02, -187500.02, 0
3, -187500.02, -106975.89, 187500.00, -187500.02, 187500.00, -187500.02, -187500.02, -187500.02, 0
4, -187500.02, -107525.45, 187500.00, -187500.02, 187500.00, -187500.02, -187500.02, -187500.02, 0
5, -187500.02, -107642.76, 187500.00, -187500.02, 187500.00, -187500.02, -187500.02, -187500.02, 0
6, -187500.02, -106909.84, 187500.00, -187500.02, 187500.00, -187500.02, -187500.02, -187500.02, 0
7, -187500.02, -106899.13, 187500.00, -187500.02, 187500.00, -187500.02, -187500.02, -187500.02, 0
8, -187500.02, -107415.35, 187500.00, -187500.02, 187500.00, -187500.02, -187500.02, -187500.02, 0
9, -187500.02, -107714.88, 187500.00, -187500.02, 187500.00, -187500.02, -187500.02, -187500.02, 0
10, -187500.02, -107019.63, 187500.00, -187500.02, 187500.00, -187500.02, -187500.02, -187500.02, 0
11, -187500.02, -106839.68, 187500.00, -187500.02, 187500.00, -187500.02, -187500.02, -187500.02, 0
12, -187500.02, -107313.27, 187500.00, -187500.02, 187500.00, -187500.02, -187500.02, -187500.02, 0
13, -187500.02, -107746.00, 187500.00, -187500.02, 187500.00, -187500.02, -187500.02, -187500.02, 0
14, -187500.02, -107148.88, 187500.00, -187500.02, 187500.00, -187500.02, -187500.02, -187500.02, 0
15, -187500.02, -106806.94, 187500.00, -187500.02, 187500.00, -187500.02, -187500.02, -187500.02, 0
16, -187500.02, -107218.86, 187500.00, -187500.02, 187500.00, -187500.02, -187500.02, -187500.02, 0
17, -187500.02, -107728.72, 187500.00, -187500.02, 187500.00, -187500.02, -187500.02, -187500.02, 0
18, -187500.02, -107306.30, 187500.00, -187500.02, 187500.00, -187500.02, -187500.02, -187500.02, 0
19, -187500.02, -106811.95, 187500.00, -187500.02, 187500.00, -187500.02, -187500.02, -187500.02, 0
20, -187500.02, -107131.17, 187500.00, -187500.02, 187500.00, -187500.02, -187500.02, -187500.02, 0
21, -187500.02, -107686.61, 187500.00, -187500.02, 187500.00, -187500.02, -187500.02, -187500.02, 0
22, -187500.02, -107463.30, 187500.00, -187500.02, 187500.00, -187500.02, -187500.02, -187500.02, 0
23, -187500.02, -106831.48, 187500.00, -187500.02, 187500.00, -187500.02, -187500.02, -187500.02, 0
24, -187500.02, -107051.98, 187500.00, -187500.02, 187500.00, -187500.02, -187500.02, -187500.02, 0
25, -187500.02, -107610.73, 187500.00, -187500.02, 187500.00, -187500.02, -187500.02, -187500.02, 0
26, -187500.02, -107581.31, 187500.00, -187500.02, 187500.00, -187500.02, -187500.02, -187500.02, 0
27, -187500.02, -106868.23, 187500.00, -187500.02, 187500.00, -187500.02, -187500.02, -187500.02, 0
28, -187500.02, -106961.41, 187500.00, -187500.02, 187500.00, -187500.02, -187500.02, -187500.02, 0
29, -187500.02, -107500.53, 187500.00, -187500.02, 187500.00, -187500.02, -187500.02, -187500.02, 0
30, -187500.02, -107678.59, 187500.00, -187500.02, 187500.00, -187500.02, -187500.02, -187500.02, 0
31, -187500.02, -106950.14, 187500.00, -187500.02, 187500.00, -187500.02, -187500.02, -187500.02, 0
32, -187500.02, -106890.60, 187500.00, -187500.02, 187500.00, -187500.02, -187500.02, -187500.02, 0
33, -187500.02, -107390.65, 187500.00, -187500.02, 187500.00, -187500.02, -187500.02, -187500.02, 0
34, -187500.02, -107731.20, 187500.00, -187500.02, 187500.00, -187500.02, -187500.02, -187500.02, 0
35, -187500.02, -107076.23, 187500.00, -187500.02, 187500.00, -187500.02, -187500.02, -187500.02, 0
36, -187500.02, -106843.55, 187500.00, -187500.02, 187500.00, -187500.02, -187500.02, -187500.02, 0
37, -187500.02, -107284.03, 187500.00, -187500.02, 187500.00, -187500.02, -187500.02, -187500.02, 0
38, -187500.02, -107751.92, 187500.00, -187500.02, 187500.00, -187500.02, -187500.02, -187500.02, 0
39, -187500.02, -107215.95, 187500.00, -187500.02, 187500.00, -187500.02, -187500.02, -187500.02, 0
40, -187500.02, -106821.91, 187500.00, -187500.02, 187500.00, -187500.02, -187500.02, -187500.02, 0
41, -187500.02, -107197.15, 187500.00, -187500.02, 187500.00, -187500.02, -187500.02, -187500.02, 0
42, -187500.02, -107730.17, 187500.00, -187500.02, 187500.00, -187500.02, -187500.02, -187500.02, 0
43, -187500.02, -107365.64, 187500.00, -187500.02, 187500.00, -187500.02, -187500.02, -187500.02, 0
44, -187500.02, -106799.41, 187500.00, -187500.02, 187500.00, -187500.02, -187500.02, -187500.02, 0
45, -187500.02, -107104.30, 187500.00, -187500.02, 187500.00, -187500.02, -187500.02, -187500.02, 0
46, -187500.02, -107663.72, 187500.00, -187500.02, 187500.00, -187500.02, -187500.02, -187500.02, 0
47, -187500.02, -107487.75, 187500.00, -187500.02, 187500.00, -187500.02, -187500.02, -187500.02, 0
48, -187500.02, -106824.68, 187500.00, -187500.02, 187500.00, -187500.02, -187500.02, -187500.02, 0
49, -187500.02, -107021.78, 187500.00, -187500.02, 187500.00, -187500.02, -187500.02, -187500.02, 0
50, -187500.02, -107584.46, 187500.00, -187500.02, 187500.00, -187500.02, -187500.02, -187500.02, 0
51, -187500.02, -107622.84, 187500.00, -187500.02, 187500.00, -187500.02, -187500.02, -187500.02, 0
52, -187500.02, -106888.74, 187500.00, -187500.02, 187500.00, -187500.02, -187500.02, -187500.02, 0
53, -187500.02, -106944.38, 187500.00, -187500.02, 187500.00, -187500.02, -187500.02, -187500.02, 0
54, -187500.02, -107486.95, 187500.00, -187500.02, 187500.00, -187500.02, -187500.02, -187500.02, 0
55, -187500.02, -107722.20, 187500.00, -187500.02, 187500.00, -187500.02, -187500.02, -187500.02, 0
56, -187500.02, -107003.14, 187500.00, -187500.02, 187500.00, -187500.02, -187500.02, -187500.02, 0
57, -187500.02, -106883.29, 187500.00, -187500.02, 187500.00, -187500.02, -187500.02, -187500.02, 0
58, -187500.02, -107367.96, 187500.00, -187500.02, 187500.00, -187500.02, -187500.02, -187500.02, 0
59, -187500.02, -107757.66, 187500.00, -187500.02, 187500.00, -187500.02, -187500.02, -187500.02, 0
60, -187500.02, -107121.34, 187500.00, -187500.02, 187500.00, -187500.02, -187500.02, -187500.02, 0
61, -187500.02, -106834.80, 187500.00, -187500.02, 187500.00, -187500.02, -187500.02, -187500.02, 0
62, -187500.02, -107252.74, 187500.00, -187500.02, 187500.00, -187500.02, -187500.02, -187500.02, 0
63, -187500.02, -107737.53, 187500.00, -187500.02, 187500.00, -187500.02, -187500.02, -187500.02, 0
64, -187500.02, -107263.49, 187500.00, -187500.02, 187500.00, -187500.02, -187500.02, -187500.02, 0
65, -187500.02, -106817.80, 187500.00, -187500.02, 187500.00, -187500.02, -187500.02, -187500.02, 0
66, -187500.02, -107182.18, 187500.00, -187500.02, 187500.00, -187500.02, -187500.02, -187500.02, 0
67, -187500.02, -107740.01, 187500.00, -187500.02, 187500.00, -187500.02, -187500.02, -187500.02, 0
68, -187500.02, -107422.08, 187500.00, -187500.02, 187500.00, -187500.02, -187500.02, -187500.02, 0
69, -187500.02, -106821.55, 187500.00, -187500.02, 187500.00, -187500.02, -187500.02, -187500.02, 0
70, -187500.02, -107077.84, 187500.00, -187500.02, 187500.00, -187500.02, -187500.02, -187500.02, 0
71, -187500.02, -107656.48, 187500.00, -187500.02, 187500.00, -187500.02, -187500.02, -187500.02, 0
72, -187500.02, -107578.48, 187500.00, -187500.02, 187500.00, -187500.02, -187500.02, -187500.02, 0
73, -187500.02, -106874.55, 187500.00, -187500.02, 187500.00, -187500.02, -187500.02, -187500.02, 0
74, -187500.02, -107006.45, 187500.00, -187500.02, 187500.00, -187500.02, -187500.02, -187500.02, 0
75, -187500.02, -107563.97, 187500.00, -187500.02, 187500.00, -187500.02, -187500.02, -187500.02, 0
76, -187500.02, -107681.20, 187500.00, -187500.02, 187500.00, -187500.02, -187500.02, -187500.02, 0
77, -187500.02, -106940.51, 187500.00, -187500.02, 187500.00, -187500.02, -187500.02, -187500.02, 0
78, -187500.02, -106936.64, 187500.00, -187500.02, 187500.00, -187500.02, -187500.02, -187500.02, 0
79, -187500.02, -107457.04, 187500.00, -187500.02, 187500.00, -187500.02, -187500.02, -187500.02, 0
80, -187500.02, -107733.80, 187500.00, -187500.02, 187500.00, -187500.02, -187500.02, -187500.02, 0
81, -187500.02, -107025.49, 187500.00, -187500.02, 187500.00, -187500.02, -187500.02, -187500.02, 0
82, -187500.02, -106876.02, 187500.00, -187500.02, 187500.00, -187500.02, -187500.02, -187500.02, 0
83, -187500.02, -107356.77, 187500.00, -187500.02, 187500.00, -187500.02, -187500.02, -187500.02, 0
84, -187500.02, -107786.68, 187500.00, -187500.02, 187500.00, -187500.02, -187500.02, -187500.02, 0
85, -187500.02, -107193.40, 187500.00, -187500.02, 187500.00, -187500.02, -187500.02, -187500.02, 0
86, -187500.02, -106849.18, 187500.00, -187500.02, 187500.00, -187500.02, -187500.02, -187500.02, 0
87, -187500.02, -107261.80, 187500.00, -187500.02, 187500.00, -187500.02, -187500.02, -187500.02, 0
88, -187500.02, -107754.90, 187500.00, -187500.02, 187500.00, -187500.02, -187500.02, -187500.02, 0
89, -187500.02, -107301.53, 187500.00, -187500.02, 187500.00, -187500.02, -187500.02, -187500.02, 0
90, -187500.02, -106816.73, 187500.00, -187500.02, 187500.00, -187500.02, -187500.02, -187500.02, 0
91, -187500.02, -107175.49, 187500.00, -187500.02, 187500.00, -187500.02, -187500.02, -187500.02, 0
92, -187500.02, -107748.03, 187500.00, -187500.02, 187500.00, -187500.02, -187500.02, -187500.02, 0
93, -187500.02, -107495.33, 187500.00, -187500.02, 187500.00, -187500.02, -187500.02, -187500.02, 0
94, -187500.02, -106852.76, 187500.00, -187500.02, 187500.00, -187500.02, -187500.02, -187500.02, 0
95, -187500.02, -107070.26, 187500.00, -187500.02, 187500.00, -187500.02, -187500.02, -187500.02, 0
96, -187500.02, -107632.77, 187500.00, -187500.02, 187500.00, -187500.02, -187500.02, -187500.02, 0
97, -187500.02, -107594.70, 187500.00, -187500.02, 187500.00, -187500.02, -187500.02, -187500.02, 0
98, -187500.02, -106873.30, 187500.00, -187500.02, 187500.00, -187500.02, -187500.02, -187500.02, 0
99, -187500.02, -106987.54, 187500.00, -187500.02, 187500.00, -187500.02, -187500.02, -187500.02, 0
100, -187500.02, -107547.18, 187500.00, -187500.02, 187500.00, -187500.02, -187500.02, -187500.02, 0
101, -187500.02, -107699.75, 187500.00, -187500.02, 187500.00, -187500.02, -187500.02, -187500.02, 0
102, -187500.02, -106958.48, 187500.00, -187500.02, 187500.00, -187500.02, -187500.02, -187500.02, 0
103, -187500.02, -106922.56, 187500.00, -187500.02, 187500.00, -187500.02, -187500.02, -187500.02, 0
104, -187500.02, -107432.43, 187500.00, -187500.02, 187500.00, -187500.02, -187500.02, -187500.02, 0
105, -187500.02, -107768.13, 187500.00, -187500.02, 187500.00, -187500.02, -187500.02, -187500.02, 0
106, -187500.02, -107090.84, 187500.00, -187500.02, 187500.00, -187500.02, -187500.02, -187500.02, 0
107, -187500.02, -106871.78, 187500.00, -187500.02, 187500.00, -187500.02, -187500.02, -187500.02, 0
108, -187500.02, -107321.98, 187500.00, -187500.02, 187500.00, -187500.02, -187500.02, -187500.02, 0
109, -187500.02, -107779.35, 187500.00, -187500.02, 187500.00, -187500.02, -187500.02, -187500.02, 0
110, -187500.02, -107222.70, 187500.00, -187500.02, 187500.00, -187500.02, -187500.02, -187500.02, 0
111, -187500.02, -106833.58, 187500.00, -187500.02, 187500.00, -187500.02, -187500.02, -187500.02, 0
112, -187500.02, -107221.85, 187500.00, -187500.02, 187500.00, -187500.02, -187500.02, -187500.02, 0
113, -187500.02, -107738.29, 187500.00, -187500.02, 187500.00, -187500.02, -187500.02, -187500.02, 0
114, -187500.02, -107359.49, 187500.00, -187500.02, 187500.00, -187500.02, -187500.02, -187500.02, 0
115, -187500.02, -106834.63, 187500.00, -187500.02, 187500.00, -187500.02, -187500.02, -187500.02, 0
116, -187500.02, -107130.52, 187500.00, -187500.02, 187500.00, -187500.02, -187500.02, -187500.02, 0
117, -187500.02, -107678.77, 187500.00, -187500.02, 187500.00, -187500.02, -187500.02, -187500.02, 0
118, -187500.02, -107505.61, 187500.00, -187500.02, 187500.00, -187500.02, -187500.02, -187500.02, 0
119, -187500.02, -106851.57, 187500.00, -187500.02, 187500.00, -187500.02, -187500.02, -187500.02, 0
120, -187500.02, -107047.91, 187500.00, -187500.02, 187500.00, -187500.02, -187500.02, -187500.02, 0
121, -187500.02, -107606.52, 187500.00, -187500.02, 187500.00, -187500.02, -187500.02, -187500.02, 0
122, -187500.02, -107631.07, 187500.00, -187500.02, 187500.00, -187500.02, -187500.02, -187500.02, 0
123, -187500.02, -106901.59, 187500.00, -187500.02, 187500.00, -187500.02, -187500.02, -187500.02, 0
124, -187500.02, -106972.34, 187500.00, -187500.02, 187500.00, -187500.02, -187500.02, -187500.02, 0
125, -187500.02, -107513.98, 187500.00, -187500.02, 187500.00, -187500.02, -187500.02, -187500.02, 0
126, -187500.02, -107734.58, 187500.00, -187500.02, 187500.00, -187500.02, -187500.02, -187500.02, 0
127, -187500.02, -107002.45, 187500.00, -187500.02, 187500.00, -187500.02, -187500.02, -187500.02, 0
128, -187500.02, -106900.86, 187500.00, -187500.02, 187500.00, -187500.02, -187500.02, -187500.02, 0
129, -187500.02, -107408.73, 187500.00, -187500.02, 187500.00, -187500.02, -187500.02, -187500.02, 0
130, -187500.02, -107777.83, 187500.00, -187500.02, 187500.00, -187500.02, -187500.02, -187500.02, 0
131, -187500.02, -107126.79, 187500.00, -187500.02, 187500.00, -187500.02, -187500.02, -187500.02, 0
132, -187500.02, -106854.59, 187500.00, -187500.02, 187500.00, -187500.02, -187500.02, -187500.02, 0
133, -187500.02, -107284.91, 187500.00, -187500.02, 187500.00, -187500.02, -187500.02, -187500.02, 0
134, -187500.02, -107773.73, 187500.00, -187500.02, 187500.00, -187500.02, -187500.02, -187500.02, 0
135, -187500.02, -107285.15, 187500.00, -187500.02, 187500.00, -187500.02, -187500.02, -187500.02, 0
136, -187500.02, -106860.85, 187500.00, -187500.02, 187500.00, -187500.02, -187500.02, -187500.02, 0
137, -187500.02, -107213.34, 187500.00, -187500.02, 187500.00, -187500.02, -187500.02, -187500.02, 0
138, -187500.02, -107743.09, 187500.00, -187500.02, 187500.00, -187500.02, -187500.02, -187500.02, 0
139, -187500.02, -107419.59, 187500.00, -187500.02, 187500.00, -187500.02, -187500.02, -187500.02, 0
140, -187500.02, -106835.66, 187500.00, -187500.02, 187500.00, -187500.02, -187500.02, -187500.02, 0
141, -187500.02, -107105.58, 187500.00, -187500.02, 187500.00, -187500.02, -187500.02, -187500.02, 0
142, -187500.02, -107671.70, 187500.00, -187500.02, 187500.00, -187500.02, -187500.02, -187500.02, 0
143, -187500.02, -107567.70, 187500.00, -187500.02, 187500.00, -187500.02, -187500.02, -187500.02, 0
144, -187500.02, -106871.89, 187500.00, -187500.02, 187500.00, -187500.02, -187500.02, -187500.02, 0
145, -187500.02, -107017.29, 187500.00, -187500.02, 187500.00, -187500.02, -187500.02, -187500.02, 0
146, -187500.02, -107572.02, 187500.00, -187500.02, 187500.00, -187500.02, -187500.02, -187500.02, 0
147, -187500.02, -107667.21, 187500.00, -187500.02, 187500.00, -187500.02, -187500.02, -187500.02, 0
148, -187500.02, -106939.82, 187500.00, -187500.02, 187500.00, -187500.02, -187500.02, -187500.02, 0
149, -187500.02, -106949.38, 187500.00, -187500.02, 187500.00, -187500.02, -187500.02, -187500.02, 0
150, -187500.02, -107467.23, 187500.00, -187500.02, 187500.00, -187500.02, -187500.02, -187500.02, 0
151, -187500.02, -107725.84, 187500.00, -187500.02, 187500.00, -187500.02, -187500.02, -187500.02, 0
152, -187500.02, -107028.17, 187500.00, -187500.02, 187500.00, -187500.02, -187500.02, -187500.02, 0
153, -187500.02, -106904.01, 187500.00, -187500.02, 187500.00, -187500.02, -187500.02, -187500.02, 0
154, -187500.02, -107378.05, 187500.00, -187500.02, 187500.00, -187500.02, -187500.02, -187500.02, 0
155, -187500.02, -107774.34, 187500.00, -187500.02, 187500.00, -187500.02, -187500.02, -187500.02, 0
156, -187500.02, -107148.29, 187500.00, -187500.02, 187500.00, -187500.02, -187500.02, -187500.02, 0
157, -187500.02, -106836.73, 187500.00, -187500.02, 187500.00, -187500.02, -187500.02, -187500.02, 0
158, -187500.02, -107279.12, 187500.00, -187500.02, 187500.00, -187500.02, -187500.02, -187500.02, 0
159, -187500.02, -107804.45, 187500.00, -187500.02, 187500.00, -187500.02, -187500.02, -187500.02, 0
160, -187500.02, -107356.21, 187500.00, -187500.02, 187500.00, -187500.02, -187500.02, -187500.02, 0
161, -187500.02, -106861.25, 187500.00, -187500.02, 187500.00, -187500.02, -187500.02, -187500.02, 0
162, -187500.02, -107184.81, 187500.00, -187500.02, 187500.00, -187500.02, -187500.02, -187500.02, 0
163, -187500.02, -107732.43, 187500.00, -187500.02, 187500.00, -187500.02, -187500.02, -187500.02, 0
164, -187500.02, -107473.20, 187500.00, -187500.02, 187500.00, -187500.02, -187500.02, -187500.02, 0
165, -187500.02, -106849.02, 187500.00, -187500.02, 187500.00, -187500.02, -187500.02, -187500.02, 0
166, -187500.02, -107093.04, 187500.00, -187500.02, 187500.00, -187500.02, -187500.02, -187500.02, 0
167, -187500.02, -107668.15, 187500.00, -187500.02, 187500.00, -187500.02, -187500.02, -187500.02, 0
168, -187500.02, -107615.94, 187500.00, -187500.02, 187500.00, -187500.02, -187500.02, -187500.02, 0
169, -187500.02, -106906.18, 187500.00, -187500.02, 187500.00, -187500.02, -187500.02, -187500.02, 0
170, -187500.02, -107017.73, 187500.00, -187500.02, 187500.00, -187500.02, -187500.02, -187500.02, 0
171, -187500.02, -107550.45, 187500.00, -187500.02, 187500.00, -187500.02, -187500.02, -187500.02, 0
172, -187500.02, -107700.34, 187500.00, -187500.02, 187500.00, -187500.02, -187500.02, -187500.02, 0
173, -187500.02, -106979.11, 187500.00, -187500.02, 187500.00, -187500.02, -187500.02, -187500.02, 0
174, -187500.02, -106961.07, 187500.00, -187500.02, 187500.00, -187500.02, -187500.02, -187500.02, 0
175, -187500.02, -107468.39, 187500.00, -187500.02, 187500.00, -187500.02, -187500.02, -187500.02, 0
176, -187500.02, -107783.66, 187500.00, -187500.02, 187500.00, -187500.02, -187500.02, -187500.02, 0
177, -187500.02, -107101.89, 187500.00, -187500.02, 187500.00, -187500.02, -187500.02, -187500.02, 0
178, -187500.02, -106887.09, 187500.00, -187500.02, 187500.00, -187500.02, -187500.02, -187500.02, 0
179, -187500.02, -107349.14, 187500.00, -187500.02, 187500.00, -187500.02, -187500.02, -187500.02, 0
180, -187500.02, -107794.59, 187500.00, -187500.02, 187500.00, -187500.02, -187500.02, -187500.02, 0
181, -187500.02, -107213.80, 187500.00, -187500.02, 187500.00, -187500.02, -187500.02, -187500.02, 0
182, -187500.02, -106823.95, 187500.00, -187500.02, 187500.00, -187500.02, -187500.02, -187500.02, 0
183, -187500.02, -107213.34, 187500.00, -187500.02, 187500.00, -187500.02, -187500.02, -187500.02, 0
184, -187500.02, -107762.36, 187500.00, -187500.02, 187500.00, -187500.02, -187500.02, -187500.02, 0
185, -187500.02, -107388.82, 187500.00, -187500.02, 187500.00, -187500.02, -187500.02, -187500.02, 0
186, -187500.02, -106872.05, 187500.00, -187500.02, 187500.00, -187500.02, -187500.02, -187500.02, 0
187, -187500.02, -107175.38, 187500.00, -187500.02, 187500.00, -187500.02, -187500.02, -187500.02, 0
188, -187500.02, -107725.39, 187500.00, -187500.02, 187500.00, -187500.02, -187500.02, -187500.02, 0
189, -187500.02, -107535.16, 187500.00, -187500.02, 187500.00, -187500.02, -187500.02, -187500.02, 0
190, -187500.02, -106882.51, 187500.00, -187500.02, 187500.00, -187500.02, -187500.02, -187500.02, 0
191, -187500.02, -107076.36, 187500.00, -187500.02, 187500.00, -187500.02, -187500.02, -187500.02, 0
192, -187500.02, -107636.19, 187500.00, -187500.02, 187500.00, -187500.02, -187500.02, -187500.02, 0
193, -187500.02, -107647.31, 187500.00, -187500.02, 187500.00, -187500.02, -187500.02, -187500.02, 0
194, -187500.02, -106913.46, 187500.00, -187500.02, 187500.00, -187500.02, -187500.02, -187500.02, 0
195, -187500.02, -106976.70, 187500.00, -187500.02, 187500.00, -187500.02, -187500.02, -187500.02, 0
196, -187500.02, -107531.69, 187500.00, -187500.02, 187500.00, -187500.02, -187500.02, -187500.02, 0
197, -187500.02, -107750.42, 187500.00, -187500.02, 187500.00, -187500.02, -187500.02, -187500.02, 0
198, -187500.02, -107023.68, 187500.00, -187500.02, 187500.00, -187500.02, -187500.02, -187500.02, 0
199, -187500.02, -106925.89, 187500.00, -187500.02, 187500.00, -187500.02, -187500.02, -187500.02, 0
200, -187500.02, -107433.25, 187500.00, -187500.02, 187500.00, -187500.02, -187500.02, -187500.02, 0
201, -187500.02, -107807.11, 187500.00, -187500.02, 187500.00, -187500.02, -187500.02, -187500.02, 0
202, -187500.02, -107148.27, 187500.00, -187500.02, 187500.00, -187500.02, -187500.02, -187500.02, 0
203, -187500.02, -106882.71, 187500.00, -187500.02, 187500.00, -187500.02, -187500.02, -187500.02, 0
204, -187500.02, -107316.24, 187500.00, -187500.02, 187500.00, -187500.02, -187500.02, -187500.02, 0
205, -187500.02, -107801.41, 187500.00, -187500.02, 187500.00, -187500.02, -187500.02, -187500.02, 0
206, -187500.02, -107304.26, 187500.00, -187500.02, 187500.00, -187500.02, -187500.02, -187500.02, 0
207, -187500.02, -106877.21, 187500.00, -187500.02, 187500.00, -187500.02, -187500.02, -187500.02, 0
208, -187500.02, -107236.67, 187500.00, -187500.02, 187500.00, -187500.02, -187500.02, -187500.02, 0
209, -187500.02, -107776.55, 187500.00, -187500.02, 187500.00, -187500.02, -187500.02, -187500.02, 0
210, -187500.02, -107443.09, 187500.00, -187500.02, 187500.00, -187500.02, -187500.02, -187500.02, 0
211, -187500.02, -106866.55, 187500.00, -187500.02, 187500.00, -187500.02, -187500.02, -187500.02, 0
212, -187500.02, -107138.66, 187500.00, -187500.02, 187500.00, -187500.02, -187500.02, -187500.02, 0
213, -187500.02, -107701.23, 187500.00, -187500.02, 187500.00, -187500.02, -187500.02, -187500.02, 0
214, -187500.02, -107570.07, 187500.00, -187500.02, 187500.00, -187500.02, -187500.02, -187500.02, 0
215, -187500.02, -106878.75, 187500.00, -187500.02, 187500.00, -187500.02, -187500.02, -187500.02, 0
216, -187500.02, -107046.39, 187500.00, -187500.02, 187500.00, -187500.02, -187500.02, -187500.02, 0
217, -187500.02, -107603.10, 187500.00, -187500.02, 187500.00, -187500.02, -187500.02, -187500.02, 0
218, -187500.02, -107674.30, 187500.00, -187500.02, 187500.00, -187500.02, -187500.02, -187500.02, 0
219, -187500.02, -106959.62, 187500.00, -187500.02, 187500.00, -187500.02, -187500.02, -187500.02, 0
220, -187500.02, -106993.48, 187500.00, -187500.02, 187500.00, -187500.02, -187500.02, -187500.02, 0
221, -187500.02, -107518.28, 187500.00, -187500.02, 187500.00, -187500.02, -187500.02, -187500.02, 0
222, -187500.02, -107770.74, 187500.00, -187500.02, 187500.00, -187500.02, -187500.02, -187500.02, 0
223, -187500.02, -107052.60, 187500.00, -187500.02, 187500.00, -187500.02, -187500.02, -187500.02, 0
224, -187500.02, -106908.91, 187500.00, -187500.02, 187500.00, -187500.02, -187500.02, -187500.02, 0
225, -187500.02, -107370.04, 187500.00, -187500.02, 187500.00, -187500.02, -187500.02, -187500.02, 0
226, -187500.02, -107793.38, 187500.00, -187500.02, 187500.00, -187500.02, -187500.02, -187500.02, 0
227, -187500.02, -107216.13, 187500.00, -187500.02, 187500.00, -187500.02, -187500.02, -187500.02, 0
228, -187500.02, -106904.99, 187500.00, -187500.02, 187500.00, -187500.02, -187500.02, -187500.02, 0
229, -187500.02, -107299.52, 187500.00, -187500.02, 187500.00, -187500.02, -187500.02, -187500.02, 0
230, -187500.02, -107789.97, 187500.00, -187500.02, 187500.00, -187500.02, -187500.02, -187500.02, 0
231, -187500.02, -107332.88, 187500.00, -187500.02, 187500.00, -187500.02, -187500.02, -187500.02, 0
232, -187500.02, -106861.79, 187500.00, -187500.02, 187500.00, -187500.02, -187500.02, -187500.02, 0
233, -187500.02, -107208.15, 187500.00, -187500.02, 187500.00, -187500.02, -187500.02, -187500.02, 0
234, -187500.02, -107768.09, 187500.00, -187500.02, 187500.00, -187500.02, -187500.02, -187500.02, 0
235, -187500.02, -107499.59, 187500.00, -187500.02, 187500.00, -187500.02, -187500.02, -187500.02, 0
236, -187500.02, -106885.28, 187500.00, -187500.02, 187500.00, -187500.02, -187500.02, -187500.02, 0
237, -187500.02, -107125.47, 187500.00, -187500.02, 187500.00, -187500.02, -187500.02, -187500.02, 0
238, -187500.02, -107683.98, 187500.00, -187500.02, 187500.00, -187500.02, -187500.02, -187500.02, 0
239, -187500.02, -107616.20, 187500.00, -187500.02, 187500.00, -187500.02, -187500.02, -187500.02, 0
240, -187500.02, -106904.21, 187500.00, -187500.02, 187500.00, -187500.02, -187500.02, -187500.02, 0
241, -187500.02, -107041.02, 187500.00, -187500.02, 187500.00, -187500.02, -187500.02, -187500.02, 0
242, -187500.02, -107600.47, 187500.00, -187500.02, 187500.00, -187500.02, -187500.02, -187500.02, 0
243, -187500.02, -107724.92, 187500.00, -187500.02, 187500.00, -187500.02, -187500.02, -187500.02, 0
244, -187500.02, -106990.98, 187500.00, -187500.02, 187500.00, -187500.02, -187500.02, -187500.02, 0
245, -187500.02, -106978.95, 187500.00, -187500.02, 187500.00, -187500.02, -187500.02, -187500.02, 0
246, -187500.02, -107491.37, 187500.00, -187500.02, 187500.00, -187500.02, -187500.02, -187500.02, 0
247, -187500.02, -107802.15, 187500.00, -187500.02, 187500.00, -187500.02, -187500.02, -187500.02, 0
248, -187500.02, -107114.27, 187500.00, -187500.02, 187500.00, -187500.02, -187500.02, -187500.02, 0
249, -187500.02, -106918.54, 187500.00, -187500.02, 187500.00, -187500.02, -187500.02, -187500.02, 0
250, -187500.02, -107391.34, 187500.00, -187500.02, 187500.00, -187500.02, -187500.02, -187500.02, 0
251, -187500.02, -107827.59, 187500.00, -187500.02, 187500.00, -187500.02, -187500.02, -187500.02, 0
252, -187500.02, -107246.93, 187500.00, -187500.02, 187500.00, -187500.02, -187500.02, -187500.02, 0
253, -187500.02, -106878.82, 187500.00, -187500.02, 187500.00, -187500.02, -187500.02, -187500.02, 0
254, -187500.02, -107272.48, 187500.00, -187500.02, 187500.00, -187500.02, -187500.02, -187500.02, 0
255, -187500.02, -107787.88, 187500.00, -187500.02, 187500.00, -187500.02, -187500.02, -187500.02, 0
0, -187500.02, -107387.55, 187500.00, -187500.02, 187500.00, -187500.02, -187500.02, -187500.02, 0
1, -187500.02, -106864.16, 187500.00, -187500.02, 187500.00, -187500.02, -187500.02, -187500.02, 0
2, -187500.02, -107182.16, 187500.00, -187500.02, 187500.00, -187500.02, -187500.02, -187500.02, 0
3, -187500.02, -107744.37, 187500.00, -187500.02, 187500.00, -187500.02, -187500.02, -187500.02, 0
4, -187500.02, -107536.56, 187500.00, -187500.02, 187500.00, -187500.02, -187500.02, -187500.02, 0
5, -187500.02, -106903.67, 187500.00, -187500.02, 187500.00, -187500.02, -187500.02, -187500.02, 0
6, -187500.02, -107115.70, 187500.00, -187500.02, 187500.00, -187500.02, -187500.02, -187500.02, 0
7, -187500.02, -107666.41, 187500.00, -187500.02, 187500.00, -187500.02, -187500.02, -187500.02, 0
8, -187500.02, -107657.02, 187500.00, -187500.02, 187500.00, -187500.02, -187500.02, -187500.02, 0
9, -187500.02, -106934.45, 187500.00, -187500.02, 187500.00, -187500.02, -187500.02, -187500.02, 0
10, -187500.02, -107021.83, 187500.00, -187500.02, 187500.00, -187500.02, -187500.02, -187500.02, 0
11, -187500.02, -107564.34, 187500.00, -187500.02, 187500.00, -187500.02, -187500.02, -187500.02, 0
12, -187500.02, -107751.01, 187500.00, -187500.02, 187500.00, -187500.02, -187500.02, -187500.02, 0
13, -187500.02, -107025.40, 187500.00, -187500.02, 187500.00, -187500.02, -187500.02, -187500.02, 0
14, -187500.02, -106956.31, 187500.00, -187500.02, 187500.00, -187500.02, -187500.02, -187500.02, 0
15, -187500.02, -107456.66, 187500.00, -187500.02, 187500.00, -187500.02, -187500.02, -187500.02, 0
16, -187500.02, -107806.69, 187500.00, -187500.02, 187500.00, -187500.02, -187500.02, -187500.02, 0
17, -187500.02, -107160.34, 187500.00, -187500.02, 187500.00, -187500.02, -187500.02, -187500.02, 0
18, -187500.02, -106928.87, 187500.00, -187500.02, 187500.00, -187500.02, -187500.02, -187500.02, 0
19, -187500.02, -107368.86, 187500.00, -187500.02, 187500.00, -187500.02, -187500.02, -187500.02, 0
20, -187500.02, -107822.55, 187500.00, -187500.02, 187500.00, -187500.02, -187500.02, -187500.02, 0
21, -187500.02, -107285.45, 187500.00, -187500.02, 187500.00, -187500.02, -187500.02, -187500.02, 0
22, -187500.02, -106876.59, 187500.00, -187500.02, 187500.00, -187500.02, -187500.02, -187500.02, 0
23, -187500.02, -107257.68, 187500.00, -187500.02, 187500.00, -187500.02, -187500.02, -187500.02, 0
24, -187500.02, -107782.90, 187500.00, -187500.02, 187500.00, -187500.02, -187500.02, -187500.02, 0
25, -187500.02, -107440.59, 187500.00, -187500.02, 187500.00, -187500.02, -187500.02, -187500.02, 0
26, -187500.02, -106891.78, 187500.00, -187500.02, 187500.00, -187500.02, -187500.02, -187500.02, 0
27, -187500.02, -107179.80, 187500.00, -187500.02, 187500.00, -187500.02, -187500.02, -187500.02, 0
28, -187500.02, -107717.88, 187500.00, -187500.02, 187500.00, -187500.02, -187500.02, -187500.02, 0
29, -187500.02, -107568.15, 187500.00, -187500.02, 187500.00, -187500.02, -187500.02, -187500.02, 0
30, -187500.02, -106923.16, 187500.00, -187500.02, 187500.00, -187500.02, -187500.02, -187500.02, 0
31, -187500.02, -107101.20, 187500.00, -187500.02, 187500.00, -187500.02, -187500.02, -187500.02, 0
32, -187500.02, -107648.14, 187500.00, -187500.02, 187500.00, -187500.02, -187500.02, -187500.02, 0
33, -187500.02, -107707.46, 187500.00, -187500.02, 187500.00, -187500.02, -187500.02, -187500.02, 0
34, -187500.02, -106980.61, 187500.00, -187500.02, 187500.00, -187500.02, -187500.02, -187500.02, 0
35, -187500.02, -107013.73, 187500.00, -187500.02, 187500.00, -187500.02, -187500.02, -187500.02, 0
36, -187500.02, -107521.59, 187500.00, -187500.02, 187500.00, -187500.02, -187500.02, -187500.02, 0
37, -187500.02, -107773.56, 187500.00, -187500.02, 187500.00, -187500.02, -187500.02, -187500.02, 0
38, -187500.02, -107077.10, 187500.00, -187500.02, 187500.00, -187500.02, -187500.02, -187500.02, 0
39, -187500.02, -106947.33, 187500.00, -187500.02, 187500.00, -187500.02, -187500.02, -187500.02, 0
40, -187500.02, -107418.81, 187500.00, -187500.02, 187500.00, -187500.02, -187500.02, -187500.02, 0
41, -187500.02, -107804.63, 187500.00, -187500.02, 187500.00, -187500.02, -187500.02, -187500.02, 0
42, -187500.02, -107193.60, 187500.00, -187500.02, 187500.00, -187500.02, -187500.02, -187500.02, 0
43, -187500.02, -106901.84, 187500.00, -187500.02, 187500.00, -187500.02, -187500.02, -187500.02, 0
44, -187500.02, -107326.19, 187500.00, -187500.02, 187500.00, -187500.02, -187500.02, -187500.02, 0
45, -187500.02, -107809.37, 187500.00, -187500.02, 187500.00, -187500.02, -187500.02, -187500.02, 0
46, -187500.02, -107349.50, 187500.00, -187500.02, 187500.00, -187500.02, -187500.02, -187500.02, 0
47, -187500.02, -106888.74, 187500.00, -187500.02, 187500.00, -187500.02, -187500.02, -187500.02, 0
48, -187500.02, -107211.57, 187500.00, -187500.02, 187500.00, -187500.02, -187500.02, -187500.02, 0
49, -187500.02, -107756.10, 187500.00, -187500.02, 187500.00, -187500.02, -187500.02, -187500.02, 0
50, -187500.02, -107479.79, 187500.00, -187500.02, 187500.00, -187500.02, -187500.02, -187500.02, 0
51, -187500.02, -106874.30, 187500.00, -187500.02, 187500.00, -187500.02, -187500.02, -187500.02, 0
52, -187500.02, -107137.18, 187500.00, -187500.02, 187500.00, -187500.02, -187500.02, -187500.02, 0
53, -187500.02, -107707.33, 187500.00, -187500.02, 187500.00, -187500.02, -187500.02, -187500.02, 0
54, -187500.02, -107627.47, 187500.00, -187500.02, 187500.00, -187500.02, -187500.02, -187500.02, 0
55, -187500.02, -106919.61, 187500.00, -187500.02, 187500.00, -187500.02, -187500.02, -187500.02, 0
56, -187500.02, -107052.60, 187500.00, -187500.02, 187500.00, -187500.02, -187500.02, -187500.02, 0
57, -187500.02, -107606.37, 187500.00, -187500.02, 187500.00, -187500.02, -187500.02, -187500.02, 0
58, -187500.02, -107737.80, 187500.00, -187500.02, 187500.00, -187500.02, -187500.02, -187500.02, 0
59, -187500.02, -107013.27, 187500.00, -187500.02, 187500.00, -187500.02, -187500.02, -187500.02, 0
60, -187500.02, -106993.35, 187500.00, -187500.02, 187500.00, -187500.02, -187500.02, -187500.02, 0
61, -187500.02, -107494.61, 187500.00, -187500.02, 187500.00, -187500.02, -187500.02, -187500.02, 0
62, -187500.02, -107784.18, 187500.00, -187500.02, 187500.00, -187500.02, -187500.02, -187500.02, 0
63, -187500.02, -107098.52, 187500.00, -187500.02, 187500.00, -187500.02, -187500.02, -187500.02, 0
64, -187500.02, -106927.59, 187500.00, -187500.02, 187500.00, -187500.02, -187500.02, -187500.02, 0
65, -187500.02, -107402.66, 187500.00, -187500.02, 187500.00, -187500.02, -187500.02, -187500.02, 0
66, -187500.02, -107838.13, 187500.00, -187500.02, 187500.00, -187500.02, -187500.02, -187500.02, 0
67, -187500.02, -107259.78, 187500.00, -187500.02, 187500.00, -187500.02, -187500.02, -187500.02, 0
68, -187500.02, -106901.35, 187500.00, -187500.02, 187500.00, -187500.02, -187500.02, -187500.02, 0
69, -187500.02, -107291.59, 187500.00, -187500.02, 187500.00, -187500.02, -187500.02, -187500.02, 0
70, -187500.02, -107809.66, 187500.00, -187500.02, 187500.00, -187500.02, -187500.02, -187500.02, 0
71, -187500.02, -107386.18, 187500.00, -187500.02, 187500.00, -187500.02, -187500.02, -187500.02, 0
72, -187500.02, -106871.17, 187500.00, -187500.02, 187500.00, -187500.02, -187500.02, -187500.02, 0
73, -187500.02, -107191.05, 187500.00, -187500.02, 187500.00, -187500.02, -187500.02, -187500.02, 0
74, -187500.02, -107748.86, 187500.00, -187500.02, 187500.00, -187500.02, -187500.02, -187500.02, 0
75, -187500.02, -107533.91, 187500.00, -187500.02, 187500.00, -187500.02, -187500.02, -187500.02, 0
76, -187500.02, -106895.80, 187500.00, -187500.02, 187500.00, -187500.02, -187500.02, -187500.02, 0
77, -187500.02, -107106.12, 187500.00, -187500.02, 187500.00, -187500.02, -187500.02, -187500.02, 0
78, -187500.02, -107663.70, 187500.00, -187500.02, 187500.00, -187500.02, -187500.02, -187500.02, 0
79, -187500.02, -107650.73, 187500.00, -187500.02, 187500.00, -187500.02, -187500.02, -187500.02, 0
80, -187500.02, -106945.65, 187500.00, -187500.02, 187500.00, -187500.02, -187500.02, -187500.02, 0
81, -187500.02, -107026.27, 187500.00, -187500.02, 187500.00, -187500.02, -187500.02, -187500.02, 0
82, -187500.02, -107577.00, 187500.00, -187500.02, 187500.00, -187500.02, -187500.02, -187500.02, 0
83, -187500.02, -107774.95, 187500.00, -187500.02, 187500.00, -187500.02, -187500.02, -187500.02, 0
84, -187500.02, -107041.96, 187500.00, -187500.02, 187500.00, -187500.02, -187500.02, -187500.02, 0
85, -187500.02, -106971.49, 187500.00, -187500.02, 187500.00, -187500.02, -187500.02, -187500.02, 0
86, -187500.02, -107477.04, 187500.00, -187500.02, 187500.00, -187500.02, -187500.02, -187500.02, 0
87, -187500.02, -107820.38, 187500.00, -187500.02, 187500.00, -187500.02, -187500.02, -187500.02, 0
88, -187500.02, -107151.73, 187500.00, -187500.02, 187500.00, -187500.02, -187500.02, -187500.02, 0
89, -187500.02, -106915.81, 187500.00, -187500.02, 187500.00, -187500.02, -187500.02, -187500.02, 0
90, -187500.02, -107355.80, 187500.00, -187500.02, 187500.00, -187500.02, -187500.02, -187500.02, 0
91, -187500.02, -107801.03, 187500.00, -187500.02, 187500.00, -187500.02, -187500.02, -187500.02, 0
92, -187500.02, -107259.52, 187500.00, -187500.02, 187500.00, -187500.02, -187500.02, -187500.02, 0
93, -187500.02, -106881.57, 187500.00, -187500.02, 187500.00, -187500.02, -187500.02, -187500.02, 0
94, -187500.02, -107271.70, 187500.00, -187500.02, 187500.00, -187500.02, -187500.02, -187500.02, 0
95, -187500.02, -107801.39, 187500.00, -187500.02, 187500.00, -187500.02, -187500.02, -187500.02, 0
96, -187500.02, -107440.00, 187500.00, -187500.02, 187500.00, -187500.02, -187500.02, -187500.02, 0
97, -187500.02, -106878.39, 187500.00, -187500.02, 187500.00, -187500.02, -187500.02, -187500.02, 0
98, -187500.02, -107166.58, 187500.00, -187500.02, 187500.00, -187500.02, -187500.02, -187500.02, 0
99, -187500.02, -107722.64, 187500.00, -187500.02, 187500.00, -187500.02, -187500.02, -187500.02, 0
100, -187500.02, -107566.90, 187500.00, -187500.02, 187500.00, -187500.02, -187500.02, -187500.02, 0
101, -187500.02, -106898.55, 187500.00, -187500.02, 187500.00, -187500.02, -187500.02, -187500.02, 0
102, -187500.02, -107074.11, 187500.00, -187500.02, 187500.00, -187500.02, -187500.02, -187500.02, 0
103, -187500.02, -107647.34, 187500.00, -187500.02, 187500.00, -187500.02, -187500.02, -187500.02, 0
104, -187500.02, -107715.65, 187500.00, -187500.02, 187500.00, -187500.02, -187500.02, -187500.02, 0
105, -187500.02, -107002.63, 187500.00, -187500.02, 187500.00, -187500.02, -187500.02, -187500.02, 0
106, -187500.02, -107043.77, 187500.00, -187500.02, 187500.00, -187500.02, -187500.02, -187500.02, 0
107, -187500.02, -107563.23, 187500.00, -187500.02, 187500.00, -187500.02, -187500.02, -187500.02, 0
108, -187500.02, -107797.70, 187500.00, -187500.02, 187500.00, -187500.02, -187500.02, -187500.02, 0
109, -187500.02, -107072.97, 187500.00, -187500.02, 187500.00, -187500.02, -187500.02, -187500.02, 0
110, -187500.02, -106955.59, 187500.00, -187500.02, 187500.00, -187500.02, -187500.02, -187500.02, 0
111, -187500.02, -107444.14, 187500.00, -187500.02, 187500.00, -187500.02, -187500.02, -187500.02, 0
112, -187500.02, -107828.95, 187500.00, -187500.02, 187500.00, -187500.02, -187500.02, -187500.02, 0
113, -187500.02, -107195.43, 187500.00, -187500.02, 187500.00, -187500.02, -187500.02, -187500.02, 0
114, -187500.02, -106909.84, 187500.00, -187500.02, 187500.00, -187500.02, -187500.02, -187500.02, 0
115, -187500.02, -107348.16, 187500.00, -187500.02, 187500.00, -187500.02, -187500.02, -187500.02, 0
116, -187500.02, -107834.34, 187500.00, -187500.02, 187500.00, -187500.02, -187500.02, -187500.02, 0
117, -187500.02, -107345.91, 187500.00, -187500.02, 187500.00, -187500.02, -187500.02, -187500.02, 0
118, -187500.02, -106888.03, 187500.00, -187500.02, 187500.00, -187500.02, -187500.02, -187500.02, 0
119, -187500.02, -107243.78, 187500.00, -187500.02, 187500.00, -187500.02, -187500.02, -187500.02, 0
120, -187500.02, -107782.97, 187500.00, -187500.02, 187500.00, -187500.02, -187500.02, -187500.02, 0
121, -187500.02, -107485.94, 187500.00, -187500.02, 187500.00, -187500.02, -187500.02, -187500.02, 0
122, -187500.02, -106902.22, 187500.00, -187500.02, 187500.00, -187500.02, -187500.02, -187500.02, 0
123, -187500.02, -107160.83, 187500.00, -187500.02, 187500.00, -187500.02, -187500.02, -187500.02, 0
124, -187500.02, -107716.16, 187500.00, -187500.02, 187500.00, -187500.02, -187500.02, -187500.02, 0
125, -187500.02, -107609.07, 187500.00, -187500.02, 187500.00, -187500.02, -187500.02, -187500.02, 0
126, -187500.02, -106914.00, 187500.00, -187500.02, 187500.00, -187500.02, -187500.02, -187500.02, 0
127, -187500.02, -107070.91, 187500.00, -187500.02, 187500.00, -187500.02, -187500.02, -187500.02, 0
128, -187500.02, -107627.98, 187500.00, -187500.02, 187500.00, -187500.02, -187500.02, -187500.02, 0
129, -187500.02, -107742.58, 187500.00, -187500.02, 187500.00, -187500.02, -187500.02, -187500.02, 0
130, -187500.02, -107013.04, 187500.00, -187500.02, 187500.00, -187500.02, -187500.02, -187500.02, 0
131, -187500.02, -107006.56, 187500.00, -187500.02, 187500.00, -187500.02, -187500.02, -187500.02, 0
132, -187500.02, -107533.32, 187500.00, -187500.02, 187500.00, -187500.02, -187500.02, -187500.02, 0
133, -187500.02, -107822.45, 187500.00, -187500.02, 187500.00, -187500.02, -187500.02, -187500.02, 0
134, -187500.02, -107122.74, 187500.00, -187500.02, 187500.00, -187500.02, -187500.02, -187500.02, 0
135, -187500.02, -106955.22, 187500.00, -187500.02, 187500.00, -187500.02, -187500.02, -187500.02, 0
136, -187500.02, -107412.29, 187500.00, -187500.02, 187500.00, -187500.02, -187500.02, -187500.02, 0
137, -187500.02, -107824.23, 187500.00, -187500.02, 187500.00, -187500.02, -187500.02, -187500.02, 0
138, -187500.02, -107224.87, 187500.00, -187500.02, 187500.00, -187500.02, -187500.02, -187500.02, 0
139, -187500.02, -106890.06, 187500.00, -187500.02, 187500.00, -187500.02, -187500.02, -187500.02, 0
140, -187500.02, -107321.14, 187500.00, -187500.02, 187500.00, -187500.02, -187500.02, -187500.02, 0
141, -187500.02, -107840.23, 187500.00, -187500.02, 187500.00, -187500.02, -187500.02, -187500.02, 0
142, -187500.02, -107402.59, 187500.00, -187500.02, 187500.00, -187500.02, -187500.02, -187500.02, 0
143, -187500.02, -106896.74, 187500.00, -187500.02, 187500.00, -187500.02, -187500.02, -187500.02, 0
144, -187500.02, -107223.20, 187500.00, -187500.02, 187500.00, -187500.02, -187500.02, -187500.02, 0
145, -187500.02, -107771.55, 187500.00, -187500.02, 187500.00, -187500.02, -187500.02, -187500.02, 0
146, -187500.02, -107526.51, 187500.00, -187500.02, 187500.00, -187500.02, -187500.02, -187500.02, 0
147, -187500.02, -106888.09, 187500.00, -187500.02, 187500.00, -187500.02, -187500.02, -187500.02, 0
148, -187500.02, -107127.86, 187500.00, -187500.02, 187500.00, -187500.02, -187500.02, -187500.02, 0
149, -187500.02, -107714.75, 187500.00, -187500.02, 187500.00, -187500.02, -187500.02, -187500.02, 0
150, -187500.02, -107684.15, 187500.00, -187500.02, 187500.00, -187500.02, -187500.02, -187500.02, 0
151, -187500.02, -106955.06, 187500.00, -187500.02, 187500.00, -187500.02, -187500.02, -187500.02, 0
152, -187500.02, -107049.02, 187500.00, -187500.02, 187500.00, -187500.02, -187500.02, -187500.02, 0
153, -187500.02, -107591.88, 187500.00, -187500.02, 187500.00, -187500.02, -187500.02, -187500.02, 0
154, -187500.02, -107760.80, 187500.00, -187500.02, 187500.00, -187500.02, -187500.02, -187500.02, 0
155, -187500.02, -107047.53, 187500.00, -187500.02, 187500.00, -187500.02, -187500.02, -187500.02, 0
156, -187500.02, -106994.80, 187500.00, -187500.02, 187500.00, -187500.02, -187500.02, -187500.02, 0
157, -187500.02, -107496.15, 187500.00, -187500.02, 187500.00, -187500.02, -187500.02, -187500.02, 0
158, -187500.02, -107829.66, 187500.00, -187500.02, 187500.00, -187500.02, -187500.02, -187500.02, 0
159, -187500.02, -107156.16, 187500.00, -187500.02, 187500.00, -187500.02, -187500.02, -187500.02, 0
160, -187500.02, -106936.58, 187500.00, -187500.02, 187500.00, -187500.02, -187500.02, -187500.02, 0
161, -187500.02, -107391.99, 187500.00, -187500.02, 187500.00, -187500.02, -187500.02, -187500.02, 0
162, -187500.02, -107861.27, 187500.00, -187500.02, 187500.00, -187500.02, -187500.02, -187500.02, 0
163, -187500.02, -107318.23, 187500.00, -187500.02, 187500.00, -187500.02, -187500.02, -187500.02, 0
164, -187500.02, -106914.83, 187500.00, -187500.02, 187500.00, -187500.02, -187500.02, -187500.02, 0
165, -187500.02, -107285.30, 187500.00, -187500.02, 187500.00, -187500.02, -187500.02, -187500.02, 0
166, -187500.02, -107819.70, 187500.00, -187500.02, 187500.00, -187500.02, -187500.02, -187500.02, 0
