%OpenBCI Raw EEG Data
%
%Sample Rate = 250.0 Hz
%First Column = SampleIndex
%Other Columns = EEG data in microvolts with optional columns at end being unscaled Aux data
0, 187500.00, -71727.08, 187500.00, 187500.00, 187500.00, 187500.00, 187500.00, 187500.00, 0
1, 187500.00, -71399.56, 187500.00, 187500.00, 187500.00, 187500.00, 187500.00, 187500.00, 0
2, 187500.00, -72901.58, 187500.00, 187500.00, 187500.00, 187500.00, 187500.00, 187500.00, 0
3, 187500.00, -73205.56, 187500.00, 187500.00, 187500.00, 187500.00, 187500.00, 187500.00, 0
4, 187500.00, -72060.79, 187500.00, 187500.00, 187500.00, 187500.00, 187500.00, 187500.00, 0
5, 187500.00, -71266.63, 187500.00, 187500.00, 187500.00, 187500.00, 187500.00, 187500.00, 0
6, 187500.00, -72709.02, 187500.00, 187500.00, 187500.00, 187500.00, 187500.00, 187500.00, 0
7, 187500.00, -73257.84, 187500.00, 187500.00, 187500.00, 187500.00, 187500.00, 187500.00, 0
8, 187500.00, -72327.00, 187500.00, 187500.00, 187500.00, 187500.00, 187500.00, 187500.00, 0
9, 187500.00, -71155.14, 187500.00, 187500.00, 187500.00, 187500.00, 187500.00, 187500.00, 0
10, 187500.00, -72422.63, 187500.00, 187500.00, 187500.00, 187500.00, 187500.00, 187500.00, 0
11, 187500.00, -73254.53, 187500.00, 187500.00, 187500.00, 187500.00, 187500.00, 187500.00, 0
12, 187500.00, -72612.55, 187500.00, 187500.00, 187500.00, 187500.00, 187500.00, 187500.00, 0
13, 187500.00, -71208.54, 187500.00, 187500.00, 187500.00, 187500.00, 187500.00, 187500.00, 0
14, 187500.00, -72145.55, 187500.00, 187500.00, 187500.00, 187500.00, 187500.00, 187500.00, 0
15, 187500.00, -73221.07, 187500.00, 187500.00, 187500.00, 187500.00, 187500.00, 187500.00, 0
16, 187500.00, -72847.98, 187500.00, 187500.00, 187500.00, 187500.00, 187500.00, 187500.00, 0
17, 187500.00, -71341.13, 187500.00, 187500.00, 187500.00, 187500.00, 187500.00, 187500.00, 0
18, 187500.00, -71841.63, 187500.00, 187500.00, 187500.00, 187500.00, 187500.00, 187500.00, 0
19, 187500.00, -73144.61, 187500.00, 187500.00, 187500.00, 187500.00, 187500.00, 187500.00, 0
20, 187500.00, -73024.51, 187500.00, 187500.00, 187500.00, 187500.00, 187500.00, 187500.00, 0
21, 187500.00, -71557.56, 187500.00, 187500.00, 187500.00, 187500.00, 187500.00, 187500.00, 0
22, 187500.00, -71557.79, 187500.00, 187500.00, 187500.00, 187500.00, 187500.00, 187500.00, 0
23, 187500.00, -73018.84, 187500.00, 187500.00, 187500.00, 187500.00, 187500.00, 187500.00, 0
24, 187500.00, -73141.52, 187500.00, 187500.00, 187500.00, 187500.00, 187500.00, 187500.00, 0
25, 187500.00, -71850.66, 187500.00, 187500.00, 187500.00, 187500.00, 187500.00, 187500.00, 0
26, 187500.00, -71367.53, 187500.00, 187500.00, 187500.00, 187500.00, 187500.00, 187500.00, 0
27, 187500.00, -72867.83, 187500.00, 187500.00, 187500.00, 187500.00, 187500.00, 187500.00, 0
28, 187500.00, -73243.58, 187500.00, 187500.00, 187500.00, 187500.00, 187500.00, 187500.00, 0
29, 187500.00, -72165.11, 187500.00, 187500.00, 187500.00, 187500.00, 187500.00, 187500.00, 0
30, 187500.00, -71225.87, 187500.00, 187500.00, 187500.00, 187500.00, 187500.00, 187500.00, 0
31, 187500.00, -72634.72, 187500.00, 187500.00, 187500.00, 187500.00, 187500.00, 187500.00, 0
32, 187500.00, -73293.24, 187500.00, 187500.00, 187500.00, 187500.00, 187500.00, 187500.00, 0
33, 187500.00, -72473.30, 187500.00, 187500.00, 187500.00, 187500.00, 187500.00, 187500.00, 0
34, 187500.00, -71193.14, 187500.00, 187500.00, 187500.00, 187500.00, 187500.00, 187500.00, 0
35, 187500.00, -72358.95, 187500.00, 187500.00, 187500.00, 187500.00, 187500.00, 187500.00, 0
36, 187500.00, -73262.55, 187500.00, 187500.00, 187500.00, 187500.00, 187500.00, 187500.00, 0
37, 187500.00, -72718.76, 187500.00, 187500.00, 187500.00, 187500.00, 187500.00, 187500.00, 0
38, 187500.00, -71252.30, 187500.00, 187500.00, 187500.00, 187500.00, 187500.00, 187500.00, 0
39, 187500.00, -72059.72, 187500.00, 187500.00, 187500.00, 187500.00, 187500.00, 187500.00, 0
40, 187500.00, -73221.70, 187500.00, 187500.00, 187500.00, 187500.00, 187500.00, 187500.00, 0
41, 187500.00, -72930.56, 187500.00, 187500.00, 187500.00, 187500.00, 187500.00, 187500.00, 0
42, 187500.00, -71430.34, 187500.00, 187500.00, 187500.00, 187500.00, 187500.00, 187500.00, 0
43, 187500.00, -71772.27, 187500.00, 187500.00, 187500.00, 187500.00, 187500.00, 187500.00, 0
44, 187500.00, -73132.42, 187500.00, 187500.00, 187500.00, 187500.00, 187500.00, 187500.00, 0
45, 187500.00, -73093.24, 187500.00, 187500.00, 187500.00, 187500.00, 187500.00, 187500.00, 0
46, 187500.00, -71666.64, 187500.00, 187500.00, 187500.00, 187500.00, 187500.00, 187500.00, 0
47, 187500.00, -71481.26, 187500.00, 187500.00, 187500.00, 187500.00, 187500.00, 187500.00, 0
48, 187500.00, -72972.25, 187500.00, 187500.00, 187500.00, 187500.00, 187500.00, 187500.00, 0
49, 187500.00, -73196.41, 187500.00, 187500.00, 187500.00, 187500.00, 187500.00, 187500.00, 0
50, 187500.00, -71964.26, 187500.00, 187500.00, 187500.00, 187500.00, 187500.00, 187500.00, 0
51, 187500.00, -71325.11, 187500.00, 187500.00, 187500.00, 187500.00, 187500.00, 187500.00, 0
52, 187500.00, -72824.84, 187500.00, 187500.00, 187500.00, 187500.00, 187500.00, 187500.00, 0
53, 187500.00, -73293.87, 187500.00, 187500.00, 187500.00, 187500.00, 187500.00, 187500.00, 0
54, 187500.00, -72285.13, 187500.00, 187500.00, 187500.00, 187500.00, 187500.00, 187500.00, 0
55, 187500.00, -71206.22, 187500.00, 187500.00, 187500.00, 187500.00, 187500.00, 187500.00, 0
56, 187500.00, -72548.22, 187500.00, 187500.00, 187500.00, 187500.00, 187500.00, 187500.00, 0
57, 187500.00, -73311.53, 187500.00, 187500.00, 187500.00, 187500.00, 187500.00, 187500.00, 0
58, 187500.00, -72592.85, 187500.00, 187500.00, 187500.00, 187500.00, 187500.00, 187500.00, 0
59, 187500.00, -71241.73, 187500.00, 187500.00, 187500.00, 187500.00, 187500.00, 187500.00, 0
60, 187500.00, -72299.55, 187500.00, 187500.00, 187500.00, 187500.00, 187500.00, 187500.00, 0
61, 187500.00, -73298.63, 187500.00, 187500.00, 187500.00, 187500.00, 187500.00, 187500.00, 0
62, 187500.00, -72833.13, 187500.00, 187500.00, 187500.00, 187500.00, 187500.00, 187500.00, 0
63, 187500.00, -71333.58, 187500.00, 187500.00, 187500.00, 187500.00, 187500.00, 187500.00, 0
64, 187500.00, -71973.11, 187500.00, 187500.00, 187500.00, 187500.00, 187500.00, 187500.00, 0
65, 187500.00, -73203.55, 187500.00, 187500.00, 187500.00, 187500.00, 187500.00, 187500.00, 0
66, 187500.00, -73012.57, 187500.00, 187500.00, 187500.00, 187500.00, 187500.00, 187500.00, 0
67, 187500.00, -71547.73, 187500.00, 187500.00, 187500.00, 187500.00, 187500.00, 187500.00, 0
68, 187500.00, -71717.49, 187500.00, 187500.00, 187500.00, 187500.00, 187500.00, 187500.00, 0
69, 187500.00, -73131.30, 187500.00, 187500.00, 187500.00, 187500.00, 187500.00, 187500.00, 0
70, 187500.00, -73176.57, 187500.00, 187500.00, 187500.00, 187500.00, 187500.00, 187500.00, 0
71, 187500.00, -71811.39, 187500.00, 187500.00, 187500.00, 187500.00, 187500.00, 187500.00, 0
72, 187500.00, -71472.77, 187500.00, 187500.00, 187500.00, 187500.00, 187500.00, 187500.00, 0
73, 187500.00, -72979.47, 187500.00, 187500.00, 187500.00, 187500.00, 187500.00, 187500.00, 0
74, 187500.00, -73281.00, 187500.00, 187500.00, 187500.00, 187500.00, 187500.00, 187500.00, 0
75, 187500.00, -72125.63, 187500.00, 187500.00, 187500.00, 187500.00, 187500.00, 187500.00, 0
76, 187500.00, -71318.89, 187500.00, 187500.00, 187500.00, 187500.00, 187500.00, 187500.00, 0
77, 187500.00, -72776.41, 187500.00, 187500.00, 187500.00, 187500.00, 187500.00, 187500.00, 0
78, 187500.00, -73340.88, 187500.00, 187500.00, 187500.00, 187500.00, 187500.00, 187500.00, 0
79, 187500.00, -72423.70, 187500.00, 187500.00, 187500.00, 187500.00, 187500.00, 187500.00, 0
80, 187500.00, -71249.98, 187500.00, 187500.00, 187500.00, 187500.00, 187500.00, 187500.00, 0
81, 187500.00, -72535.68, 187500.00, 187500.00, 187500.00, 187500.00, 187500.00, 187500.00, 0
82, 187500.00, -73361.87, 187500.00, 187500.00, 187500.00, 187500.00, 187500.00, 187500.00, 0
83, 187500.00, -72703.78, 187500.00, 187500.00, 187500.00, 187500.00, 187500.00, 187500.00, 0
84, 187500.00, -71296.19, 187500.00, 187500.00, 187500.00, 187500.00, 187500.00, 187500.00, 0
85, 187500.00, -72242.98, 187500.00, 187500.00, 187500.00, 187500.00, 187500.00, 187500.00, 0
86, 187500.00, -73337.77, 187500.00, 187500.00, 187500.00, 187500.00, 187500.00, 187500.00, 0
87, 187500.00, -72969.44, 187500.00, 187500.00, 187500.00, 187500.00, 187500.00, 187500.00, 0
88, 187500.00, -71459.58, 187500.00, 187500.00, 187500.00, 187500.00, 187500.00, 187500.00, 0
89, 187500.00, -71946.42, 187500.00, 187500.00, 187500.00, 187500.00, 187500.00, 187500.00, 0
90, 187500.00, -73250.77, 187500.00, 187500.00, 187500.00, 187500.00, 187500.00, 187500.00, 0
91, 187500.00, -73131.15, 187500.00, 187500.00, 187500.00, 187500.00, 187500.00, 187500.00, 0
92, 187500.00, -71671.42, 187500.00, 187500.00, 187500.00, 187500.00, 187500.00, 187500.00, 0
93, 187500.00, -71669.01, 187500.00, 187500.00, 187500.00, 187500.00, 187500.00, 187500.00, 0
94, 187500.00, -73124.53, 187500.00, 187500.00, 187500.00, 187500.00, 187500.00, 187500.00, 0
95, 187500.00, -73250.55, 187500.00, 187500.00, 187500.00, 187500.00, 187500.00, 187500.00, 0
96, 187500.00, -71969.58, 187500.00, 187500.00, 187500.00, 187500.00, 187500.00, 187500.00, 0
97, 187500.00, -71469.88, 187500.00, 187500.00, 187500.00, 187500.00, 187500.00, 187500.00, 0
98, 187500.00, -72966.06, 187500.00, 187500.00, 187500.00, 187500.00, 187500.00, 187500.00, 0
99, 187500.00, -73362.54, 187500.00, 187500.00, 187500.00, 187500.00, 187500.00, 187500.00, 0
100, 187500.00, -72273.88, 187500.00, 187500.00, 187500.00, 187500.00, 187500.00, 187500.00, 0
101, 187500.00, -71327.12, 187500.00, 187500.00, 187500.00, 187500.00, 187500.00, 187500.00, 0
102, 187500.00, -72735.99, 187500.00, 187500.00, 187500.00, 187500.00, 187500.00, 187500.00, 0
103, 187500.00, -73395.99, 187500.00, 187500.00, 187500.00, 187500.00, 187500.00, 187500.00, 0
104, 187500.00, -72586.17, 187500.00, 187500.00, 187500.00, 187500.00, 187500.00, 187500.00, 0
105, 187500.00, -71320.48, 187500.00, 187500.00, 187500.00, 187500.00, 187500.00, 187500.00, 0
106, 187500.00, -72473.34, 187500.00, 187500.00, 187500.00, 187500.00, 187500.00, 187500.00, 0
107, 187500.00, -73398.97, 187500.00, 187500.00, 187500.00, 187500.00, 187500.00, 187500.00, 0
108, 187500.00, -72860.94, 187500.00, 187500.00, 187500.00, 187500.00, 187500.00, 187500.00, 0
109, 187500.00, -71403.38, 187500.00, 187500.00, 187500.00, 187500.00, 187500.00, 187500.00, 0
110, 187500.00, -72187.13, 187500.00, 187500.00, 187500.00, 187500.00, 187500.00, 187500.00, 0
111, 187500.00, -73345.80, 187500.00, 187500.00, 187500.00, 187500.00, 187500.00, 187500.00, 0
112, 187500.00, -73056.32, 187500.00, 187500.00, 187500.00, 187500.00, 187500.00, 187500.00, 0
113, 187500.00, -71562.75, 187500.00, 187500.00, 187500.00, 187500.00, 187500.00, 187500.00, 0
114, 187500.00, -71890.00, 187500.00, 187500.00, 187500.00, 187500.00, 187500.00, 187500.00, 0
115, 187500.00, -73266.55, 187500.00, 187500.00, 187500.00, 187500.00, 187500.00, 187500.00, 0
116, 187500.00, -73248.81, 187500.00, 187500.00, 187500.00, 187500.00, 187500.00, 187500.00, 0
117, 187500.00, -71836.70, 187500.00, 187500.00, 187500.00, 187500.00, 187500.00, 187500.00, 0
118, 187500.00, -71640.00, 187500.00, 187500.00, 187500.00, 187500.00, 187500.00, 187500.00, 0
119, 187500.00, -73112.04, 187500.00, 187500.00, 187500.00, 187500.00, 187500.00, 187500.00, 0
120, 187500.00, -73323.20, 187500.00, 187500.00, 187500.00, 187500.00, 187500.00, 187500.00, 0
121, 187500.00, -72106.68, 187500.00, 187500.00, 187500.00, 187500.00, 187500.00, 187500.00, 0
122, 187500.00, -71458.44, 187500.00, 187500.00, 187500.00, 187500.00, 187500.00, 187500.00, 0
123, 187500.00, -72942.14, 187500.00, 187500.00, 187500.00, 187500.00, 187500.00, 187500.00, 0
124, 187500.00, -73412.85, 187500.00, 187500.00, 187500.00, 187500.00, 187500.00, 187500.00, 0
125, 187500.00, -72428.12, 187500.00, 187500.00, 187500.00, 187500.00, 187500.00, 187500.00, 0
126, 187500.00, -71353.78, 187500.00, 187500.00, 187500.00, 187500.00, 187500.00, 187500.00, 0
127, 187500.00, -72682.38, 187500.00, 187500.00, 187500.00, 187500.00, 187500.00, 187500.00, 0
128, 187500.00, -73419.87, 187500.00, 187500.00, 187500.00, 187500.00, 187500.00, 187500.00, 0
129, 187500.00, -72692.27, 187500.00, 187500.00, 187500.00, 187500.00, 187500.00, 187500.00, 0
130, 187500.00, -71333.55, 187500.00, 187500.00, 187500.00, 187500.00, 187500.00, 187500.00, 0
131, 187500.00, -72386.95, 187500.00, 187500.00, 187500.00, 187500.00, 187500.00, 187500.00, 0
132, 187500.00, -73401.14, 187500.00, 187500.00, 187500.00, 187500.00, 187500.00, 187500.00, 0
133, 187500.00, -72951.82, 187500.00, 187500.00, 187500.00, 187500.00, 187500.00, 187500.00, 0
134, 187500.00, -71451.13, 187500.00, 187500.00, 187500.00, 187500.00, 187500.00, 187500.00, 0
135, 187500.00, -72076.33, 187500.00, 187500.00, 187500.00, 187500.00, 187500.00, 187500.00, 0
136, 187500.00, -73344.23, 187500.00, 187500.00, 187500.00, 187500.00, 187500.00, 187500.00, 0
137, 187500.00, -73159.29, 187500.00, 187500.00, 187500.00, 187500.00, 187500.00, 187500.00, 0
138, 187500.00, -71670.93, 187500.00, 187500.00, 187500.00, 187500.00, 187500.00, 187500.00, 0
139, 187500.00, -71825.63, 187500.00, 187500.00, 187500.00, 187500.00, 187500.00, 187500.00, 0
140, 187500.00, -73253.02, 187500.00, 187500.00, 187500.00, 187500.00, 187500.00, 187500.00, 0
141, 187500.00, -73302.25, 187500.00, 187500.00, 187500.00, 187500.00, 187500.00, 187500.00, 0
142, 187500.00, -71940.36, 187500.00, 187500.00, 187500.00, 187500.00, 187500.00, 187500.00, 0
143, 187500.00, -71578.02, 187500.00, 187500.00, 187500.00, 187500.00, 187500.00, 187500.00, 0
144, 187500.00, -73069.44, 187500.00, 187500.00, 187500.00, 187500.00, 187500.00, 187500.00, 0
145, 187500.00, -73375.59, 187500.00, 187500.00, 187500.00, 187500.00, 187500.00, 187500.00, 0
146, 187500.00, -72253.73, 187500.00, 187500.00, 187500.00, 187500.00, 187500.00, 187500.00, 0
147, 187500.00, -71425.69, 187500.00, 187500.00, 187500.00, 187500.00, 187500.00, 187500.00, 0
148, 187500.00, -72869.08, 187500.00, 187500.00, 187500.00, 187500.00, 187500.00, 187500.00, 0
149, 187500.00, -73444.01, 187500.00, 187500.00, 187500.00, 187500.00, 187500.00, 187500.00, 0
150, 187500.00, -72540.62, 187500.00, 187500.00, 187500.00, 187500.00, 187500.00, 187500.00, 0
151, 187500.00, -71363.51, 187500.00, 187500.00, 187500.00, 187500.00, 187500.00, 187500.00, 0
152, 187500.00, -72615.07, 187500.00, 187500.00, 187500.00, 187500.00, 187500.00, 187500.00, 0
153, 187500.00, -73432.32, 187500.00, 187500.00, 187500.00, 187500.00, 187500.00, 187500.00, 0
154, 187500.00, -72804.14, 187500.00, 187500.00, 187500.00, 187500.00, 187500.00, 187500.00, 0
155, 187500.00, -71423.45, 187500.00, 187500.00, 187500.00, 187500.00, 187500.00, 187500.00, 0
156, 187500.00, -72346.27, 187500.00, 187500.00, 187500.00, 187500.00, 187500.00, 187500.00, 0
157, 187500.00, -73431.67, 187500.00, 187500.00, 187500.00, 187500.00, 187500.00, 187500.00, 0
158, 187500.00, -73072.73, 187500.00, 187500.00, 187500.00, 187500.00, 187500.00, 187500.00, 0
159, 187500.00, -71560.80, 187500.00, 187500.00, 187500.00, 187500.00, 187500.00, 187500.00, 0
160, 187500.00, -72028.20, 187500.00, 187500.00, 187500.00, 187500.00, 187500.00, 187500.00, 0
161, 187500.00, -73338.82, 187500.00, 187500.00, 187500.00, 187500.00, 187500.00, 187500.00, 0
162, 187500.00, -73237.19, 187500.00, 187500.00, 187500.00, 187500.00, 187500.00, 187500.00, 0
163, 187500.00, -71789.76, 187500.00, 187500.00, 187500.00, 187500.00, 187500.00, 187500.00, 0
164, 187500.00, -71752.72, 187500.00, 187500.00, 187500.00, 187500.00, 187500.00, 187500.00, 0
165, 187500.00, -73226.80, 187500.00, 187500.00, 187500.00, 187500.00, 187500.00, 187500.00, 0
166, 187500.00, -73379.63, 187500.00, 187500.00, 187500.00, 187500.00, 187500.00, 187500.00, 0
167, 187500.00, -72086.54, 187500.00, 187500.00, 187500.00, 187500.00, 187500.00, 187500.00, 0
168, 187500.00, -71544.63, 187500.00, 187500.00, 187500.00, 187500.00, 187500.00, 187500.00, 0
169, 187500.00, -73034.81, 187500.00, 187500.00, 187500.00, 187500.00, 187500.00, 187500.00, 0
170, 187500.00, -73427.87, 187500.00, 187500.00, 187500.00, 187500.00, 187500.00, 187500.00, 0
171, 187500.00, -72365.11, 187500.00, 187500.00, 187500.00, 187500.00, 187500.00, 187500.00, 0
172, 187500.00, -71403.07, 187500.00, 187500.00, 187500.00, 187500.00, 187500.00, 187500.00, 0
173, 187500.00, -72800.70, 187500.00, 187500.00, 187500.00, 187500.00, 187500.00, 187500.00, 0
174, 187500.00, -73474.65, 187500.00, 187500.00, 187500.00, 187500.00, 187500.00, 187500.00, 0
175, 187500.00, -72671.64, 187500.00, 187500.00, 187500.00, 187500.00, 187500.00, 187500.00, 0
176, 187500.00, -71370.62, 187500.00, 187500.00, 187500.00, 187500.00, 187500.00, 187500.00, 0
177, 187500.00, -72519.70, 187500.00, 187500.00, 187500.00, 187500.00, 187500.00, 187500.00, 0
178, 187500.00, -73466.96, 187500.00, 187500.00, 187500.00, 187500.00, 187500.00, 187500.00, 0
179, 187500.00, -72933.00, 187500.00, 187500.00, 187500.00, 187500.00, 187500.00, 187500.00, 0
180, 187500.00, -71458.63, 187500.00, 187500.00, 187500.00, 187500.00, 187500.00, 187500.00, 0
181, 187500.00, -72232.09, 187500.00, 187500.00, 187500.00, 187500.00, 187500.00, 187500.00, 0
182, 187500.00, -73404.98, 187500.00, 187500.00, 187500.00, 187500.00, 187500.00, 187500.00, 0
183, 187500.00, -73145.01, 187500.00, 187500.00, 187500.00, 187500.00, 187500.00, 187500.00, 0
184, 187500.00, -71646.13, 187500.00, 187500.00, 187500.00, 187500.00, 187500.00, 187500.00, 0
185, 187500.00, -71927.93, 187500.00, 187500.00, 187500.00, 187500.00, 187500.00, 187500.00, 0
186, 187500.00, -73307.53, 187500.00, 187500.00, 187500.00, 187500.00, 187500.00, 187500.00, 0
187, 187500.00, -73296.76, 187500.00, 187500.00, 187500.00, 187500.00, 187500.00, 187500.00, 0
188, 187500.00, -71895.95, 187500.00, 187500.00, 187500.00, 187500.00, 187500.00, 187500.00, 0
189, 187500.00, -71679.94, 187500.00, 187500.00, 187500.00, 187500.00, 187500.00, 187500.00, 0
190, 187500.00, -73169.35, 187500.00, 187500.00, 187500.00, 187500.00, 187500.00, 187500.00, 0
191, 187500.00, -73390.97, 187500.00, 187500.00, 187500.00, 187500.00, 187500.00, 187500.00, 0
192, 187500.00, -72181.34, 187500.00, 187500.00, 187500.00, 187500.00, 187500.00, 187500.00, 0
193, 187500.00, -71506.63, 187500.00, 187500.00, 187500.00, 187500.00, 187500.00, 187500.00, 0
194, 187500.00, -72994.91, 187500.00, 187500.00, 187500.00, 187500.00, 187500.00, 187500.00, 0
195, 187500.00, -73477.55, 187500.00, 187500.00, 187500.00, 187500.00, 187500.00, 187500.00, 0
196, 187500.00, -72487.94, 187500.00, 187500.00, 187500.00, 187500.00, 187500.00, 187500.00, 0
197, 187500.00, -71397.03, 187500.00, 187500.00, 187500.00, 187500.00, 187500.00, 187500.00, 0
198, 187500.00, -72724.80, 187500.00, 187500.00, 187500.00, 187500.00, 187500.00, 187500.00, 0
199, 187500.00, -73481.38, 187500.00, 187500.00, 187500.00, 187500.00, 187500.00, 187500.00, 0
200, 187500.00, -72793.68, 187500.00, 187500.00, 187500.00, 187500.00, 187500.00, 187500.00, 0
201, 187500.00, -71443.19, 187500.00, 187500.00, 187500.00, 187500.00, 187500.00, 187500.00, 0
202, 187500.00, -72471.70, 187500.00, 187500.00, 187500.00, 187500.00, 187500.00, 187500.00, 0
203, 187500.00, -73485.27, 187500.00, 187500.00, 187500.00, 187500.00, 187500.00, 187500.00, 0
204, 187500.00, -73034.45, 187500.00, 187500.00, 187500.00, 187500.00, 187500.00, 187500.00, 0
205, 187500.00, -71538.86, 187500.00, 187500.00, 187500.00, 187500.00, 187500.00, 187500.00, 0
206, 187500.00, -72157.55, 187500.00, 187500.00, 187500.00, 187500.00, 187500.00, 187500.00, 0
207, 187500.00, -73424.20, 187500.00, 187500.00, 187500.00, 187500.00, 187500.00, 187500.00, 0
208, 187500.00, -73240.27, 187500.00, 187500.00, 187500.00, 187500.00, 187500.00, 187500.00, 0
209, 187500.00, -71748.63, 187500.00, 187500.00, 187500.00, 187500.00, 187500.00, 187500.00, 0
210, 187500.00, -71863.88, 187500.00, 187500.00, 187500.00, 187500.00, 187500.00, 187500.00, 0
211, 187500.00, -73300.71, 187500.00, 187500.00, 187500.00, 187500.00, 187500.00, 187500.00, 0
212, 187500.00, -73384.89, 187500.00, 187500.00, 187500.00, 187500.00, 187500.00, 187500.00, 0
213, 187500.00, -72040.48, 187500.00, 187500.00, 187500.00, 187500.00, 187500.00, 187500.00, 0
214, 187500.00, -71650.98, 187500.00, 187500.00, 187500.00, 187500.00, 187500.00, 187500.00, 0
215, 187500.00, -73148.25, 187500.00, 187500.00, 187500.00, 187500.00, 187500.00, 187500.00, 0
216, 187500.00, -73466.25, 187500.00, 187500.00, 187500.00, 187500.00, 187500.00, 187500.00, 0
217, 187500.00, -72328.59, 187500.00, 187500.00, 187500.00, 187500.00, 187500.00, 187500.00, 0
218, 187500.00, -71491.96, 187500.00, 187500.00, 187500.00, 187500.00, 187500.00, 187500.00, 0
219, 187500.00, -72935.17, 187500.00, 187500.00, 187500.00, 187500.00, 187500.00, 187500.00, 0
220, 187500.00, -73514.35, 187500.00, 187500.00, 187500.00, 187500.00, 187500.00, 187500.00, 0
221, 187500.00, -72620.34, 187500.00, 187500.00, 187500.00, 187500.00, 187500.00, 187500.00, 0
222, 187500.00, -71436.20, 187500.00, 187500.00, 187500.00, 187500.00, 187500.00, 187500.00, 0
223, 187500.00, -72676.27, 187500.00, 187500.00, 187500.00, 187500.00, 187500.00, 187500.00, 0
224, 187500.00, -73523.53, 187500.00, 187500.00, 187500.00, 187500.00, 187500.00, 187500.00, 0
225, 187500.00, -72910.18, 187500.00, 187500.00, 187500.00, 187500.00, 187500.00, 187500.00, 0
226, 187500.00, -71484.27, 187500.00, 187500.00, 187500.00, 187500.00, 187500.00, 187500.00, 0
227, 187500.00, -72374.14, 187500.00, 187500.00, 187500.00, 187500.00, 187500.00, 187500.00, 0
228, 187500.00, -73483.81, 187500.00, 187500.00, 187500.00, 187500.00, 187500.00, 187500.00, 0
229, 187500.00, -73150.89, 187500.00, 187500.00, 187500.00, 187500.00, 187500.00, 187500.00, 0
230, 187500.00, -71662.59, 187500.00, 187500.00, 187500.00, 187500.00, 187500.00, 187500.00, 0
231, 187500.00, -72103.51, 187500.00, 187500.00, 187500.00, 187500.00, 187500.00, 187500.00, 0
232, 187500.00, -73408.11, 187500.00, 187500.00, 187500.00, 187500.00, 187500.00, 187500.00, 0
233, 187500.00, -73320.31, 187500.00, 187500.00, 187500.00, 187500.00, 187500.00, 187500.00, 0
234, 187500.00, -71886.83, 187500.00, 187500.00, 187500.00, 187500.00, 187500.00, 187500.00, 0
235, 187500.00, -71830.50, 187500.00, 187500.00, 187500.00, 187500.00, 187500.00, 187500.00, 0
236, 187500.00, -73299.23, 187500.00, 187500.00, 187500.00, 187500.00, 187500.00, 187500.00, 0
237, 187500.00, -73453.71, 187500.00, 187500.00, 187500.00, 187500.00, 187500.00, 187500.00, 0
238, 187500.00, -72164.48, 187500.00, 187500.00, 187500.00, 187500.00, 187500.00, 187500.00, 0
239, 187500.00, -71597.46, 187500.00, 187500.00, 187500.00, 187500.00, 187500.00, 187500.00, 0
240, 187500.00, -73083.85, 187500.00, 187500.00, 187500.00, 187500.00, 187500.00, 187500.00, 0
241, 187500.00, -73513.56, 187500.00, 187500.00, 187500.00, 187500.00, 187500.00, 187500.00, 0
242, 187500.00, -72483.44, 187500.00, 187500.00, 187500.00, 187500.00, 187500.00, 187500.00, 0
243, 187500.00, -71500.86, 187500.00, 187500.00, 187500.00, 187500.00, 187500.00, 187500.00, 0
244, 187500.00, -72868.07, 187500.00, 187500.00, 187500.00, 187500.00, 187500.00, 187500.00, 0
245, 187500.00, -73535.88, 187500.00, 187500.00, 187500.00, 187500.00, 187500.00, 187500.00, 0
246, 187500.00, -72752.42, 187500.00, 187500.00, 187500.00, 187500.00, 187500.00, 187500.00, 0
247, 187500.00, -71478.77, 187500.00, 187500.00, 187500.00, 187500.00, 187500.00, 187500.00, 0
248, 187500.00, -72624.19, 187500.00, 187500.00, 187500.00, 187500.00, 187500.00, 187500.00, 0
249, 187500.00, -73564.08, 187500.00, 187500.00, 187500.00, 187500.00, 187500.00, 187500.00, 0
250, 187500.00, -73038.26, 187500.00, 187500.00, 187500.00, 187500.00, 187500.00, 187500.00, 0
251, 187500.00, -71575.24, 187500.00, 187500.00, 187500.00, 187500.00, 187500.00, 187500.00, 0
252, 187500.00, -72319.20, 187500.00, 187500.00, 187500.00, 187500.00, 187500.00, 187500.00, 0
253, 187500.00, -73503.20, 187500.00, 187500.00, 187500.00, 187500.00, 187500.00, 187500.00, 0
254, 187500.00, -73249.21, 187500.00, 187500.00, 187500.00, 187500.00, 187500.00, 187500.00, 0
255, 187500.00, -71743.29, 187500.00, 187500.00, 187500.00, 187500.00, 187500.00, 187500.00, 0
0, 187500.00, -72021.25, 187500.00, 187500.00, 187500.00, 187500.00, 187500.00, 187500.00, 0
1, 187500.00, -73421.21, 187500.00, 187500.00, 187500.00, 187500.00, 187500.00, 187500.00, 0
2, 187500.00, -73412.18, 187500.00, 187500.00, 187500.00, 187500.00, 187500.00, 187500.00, 0
3, 187500.00, -72014.21, 187500.00, 187500.00, 187500.00, 187500.00, 187500.00, 187500.00, 0
4, 187500.00, -71770.53, 187500.00, 187500.00, 187500.00, 187500.00, 187500.00, 187500.00, 0
5, 187500.00, -73252.68, 187500.00, 187500.00, 187500.00, 187500.00, 187500.00, 187500.00, 0
6, 187500.00, -73494.01, 187500.00, 187500.00, 187500.00, 187500.00, 187500.00, 187500.00, 0
7, 187500.00, -72291.57, 187500.00, 187500.00, 187500.00, 187500.00, 187500.00, 187500.00, 0
8, 187500.00, -71577.80, 187500.00, 187500.00, 187500.00, 187500.00, 187500.00, 187500.00, 0
9, 187500.00, -73051.11, 187500.00, 187500.00, 187500.00, 187500.00, 187500.00, 187500.00, 0
10, 187500.00, -73571.93, 187500.00, 187500.00, 187500.00, 187500.00, 187500.00, 187500.00, 0
11, 187500.00, -72609.57, 187500.00, 187500.00, 187500.00, 187500.00, 187500.00, 187500.00, 0
12, 187500.00, -71507.63, 187500.00, 187500.00, 187500.00, 187500.00, 187500.00, 187500.00, 0
13, 187500.00, -72804.75, 187500.00, 187500.00, 187500.00, 187500.00, 187500.00, 187500.00, 0
14, 187500.00, -73591.13, 187500.00, 187500.00, 187500.00, 187500.00, 187500.00, 187500.00, 0
15, 187500.00, -72903.99, 187500.00, 187500.00, 187500.00, 187500.00, 187500.00, 187500.00, 0
16, 187500.00, -71543.70, 187500.00, 187500.00, 187500.00, 187500.00, 187500.00, 187500.00, 0
17, 187500.00, -72547.10, 187500.00, 187500.00, 187500.00, 187500.00, 187500.00, 187500.00, 0
18, 187500.00, -73580.45, 187500.00, 187500.00, 187500.00, 187500.00, 187500.00, 187500.00, 0
19, 187500.00, -73162.51, 187500.00, 187500.00, 187500.00, 187500.00, 187500.00, 187500.00, 0
20, 187500.00, -71654.77, 187500.00, 187500.00, 187500.00, 187500.00, 187500.00, 187500.00, 0
21, 187500.00, -72241.55, 187500.00, 187500.00, 187500.00, 187500.00, 187500.00, 187500.00, 0
22, 187500.00, -73509.30, 187500.00, 187500.00, 187500.00, 187500.00, 187500.00, 187500.00, 0
23, 187500.00, -73351.18, 187500.00, 187500.00, 187500.00, 187500.00, 187500.00, 187500.00, 0
24, 187500.00, -71876.21, 187500.00, 187500.00, 187500.00, 187500.00, 187500.00, 187500.00, 0
25, 187500.00, -71951.13, 187500.00, 187500.00, 187500.00, 187500.00, 187500.00, 187500.00, 0
26, 187500.00, -73374.77, 187500.00, 187500.00, 187500.00, 187500.00, 187500.00, 187500.00, 0
27, 187500.00, -73492.55, 187500.00, 187500.00, 187500.00, 187500.00, 187500.00, 187500.00, 0
28, 187500.00, -72161.95, 187500.00, 187500.00, 187500.00, 187500.00, 187500.00, 187500.00, 0
29, 187500.00, -71746.48, 187500.00, 187500.00, 187500.00, 187500.00, 187500.00, 187500.00, 0
30, 187500.00, -73236.92, 187500.00, 187500.00, 187500.00, 187500.00, 187500.00, 187500.00, 0
31, 187500.00, -73566.20, 187500.00, 187500.00, 187500.00, 187500.00, 187500.00, 187500.00, 0
32, 187500.00, -72438.38, 187500.00, 187500.00, 187500.00, 187500.00, 187500.00, 187500.00, 0
33, 187500.00, -71576.97, 187500.00, 187500.00, 187500.00, 187500.00, 187500.00, 187500.00, 0
34, 187500.00, -73019.95, 187500.00, 187500.00, 187500.00, 187500.00, 187500.00, 187500.00, 0
35, 187500.00, -73609.48, 187500.00, 187500.00, 187500.00, 187500.00, 187500.00, 187500.00, 0
36, 187500.00, -72733.38, 187500.00, 187500.00, 187500.00, 187500.00, 187500.00, 187500.00, 0
37, 187500.00, -71532.20, 187500.00, 187500.00, 187500.00, 187500.00, 187500.00, 187500.00, 0
38, 187500.00, -72754.81, 187500.00, 187500.00, 187500.00, 187500.00, 187500.00, 187500.00, 0
39, 187500.00, -73620.81, 187500.00, 187500.00, 187500.00, 187500.00, 187500.00, 187500.00, 0
40, 187500.00, -73014.61, 187500.00, 187500.00, 187500.00, 187500.00, 187500.00, 187500.00, 0
41, 187500.00, -71583.63, 187500.00, 187500.00, 187500.00, 187500.00, 187500.00, 187500.00, 0
42, 187500.00, -72469.47, 187500.00, 187500.00, 187500.00, 187500.00, 187500.00, 187500.00, 0
43, 187500.00, -73586.43, 187500.00, 187500.00, 187500.00, 187500.00, 187500.00, 187500.00, 0
44, 187500.00, -73240.98, 187500.00, 187500.00, 187500.00, 187500.00, 187500.00, 187500.00, 0
45, 187500.00, -71738.68, 187500.00, 187500.00, 187500.00, 187500.00, 187500.00, 187500.00, 0
46, 187500.00, -72157.71, 187500.00, 187500.00, 187500.00, 187500.00, 187500.00, 187500.00, 0
47, 187500.00, -73493.25, 187500.00, 187500.00, 187500.00, 187500.00, 187500.00, 187500.00, 0
48, 187500.00, -73424.34, 187500.00, 187500.00, 187500.00, 187500.00, 187500.00, 187500.00, 0
49, 187500.00, -71983.61, 187500.00, 187500.00, 187500.00, 187500.00, 187500.00, 187500.00, 0
50, 187500.00, -71904.82, 187500.00, 187500.00, 187500.00, 187500.00, 187500.00, 187500.00, 0
51, 187500.00, -73366.13, 187500.00, 187500.00, 187500.00, 187500.00, 187500.00, 187500.00, 0
52, 187500.00, -73523.06, 187500.00, 187500.00, 187500.00, 187500.00, 187500.00, 187500.00, 0
53, 187500.00, -72252.05, 187500.00, 187500.00, 187500.00, 187500.00, 187500.00, 187500.00, 0
54, 187500.00, -71686.53, 187500.00, 187500.00, 187500.00, 187500.00, 187500.00, 187500.00, 0
55, 187500.00, -73184.13, 187500.00, 187500.00, 187500.00, 187500.00, 187500.00, 187500.00, 0
56, 187500.00, -73615.20, 187500.00, 187500.00, 187500.00, 187500.00, 187500.00, 187500.00, 0
57, 187500.00, -72593.63, 187500.00, 187500.00, 187500.00, 187500.00, 187500.00, 187500.00, 0
58, 187500.00, -71609.20, 187500.00, 187500.00, 187500.00, 187500.00, 187500.00, 187500.00, 0
59, 187500.00, -72972.25, 187500.00, 187500.00, 187500.00, 187500.00, 187500.00, 187500.00, 0
60, 187500.00, -73652.55, 187500.00, 187500.00, 187500.00, 187500.00, 187500.00, 187500.00, 0
61, 187500.00, -72871.18, 187500.00, 187500.00, 187500.00, 187500.00, 187500.00, 187500.00, 0
62, 187500.00, -71567.20, 187500.00, 187500.00, 187500.00, 187500.00, 187500.00, 187500.00, 0
63, 187500.00, -72676.00, 187500.00, 187500.00, 187500.00, 187500.00, 187500.00, 187500.00, 0
64, 187500.00, -73649.87, 187500.00, 187500.00, 187500.00, 187500.00, 187500.00, 187500.00, 0
65, 187500.00, -73160.45, 187500.00, 187500.00, 187500.00, 187500.00, 187500.00, 187500.00, 0
66, 187500.00, -71686.84, 187500.00, 187500.00, 187500.00, 187500.00, 187500.00, 187500.00, 0
67, 187500.00, -72404.77, 187500.00, 187500.00, 187500.00, 187500.00, 187500.00, 187500.00, 0
68, 187500.00, -73588.67, 187500.00, 187500.00, 187500.00, 187500.00, 187500.00, 187500.00, 0
69, 187500.00, -73339.02, 187500.00, 187500.00, 187500.00, 187500.00, 187500.00, 187500.00, 0
70, 187500.00, -71854.02, 187500.00, 187500.00, 187500.00, 187500.00, 187500.00, 187500.00, 0
71, 187500.00, -72104.58, 187500.00, 187500.00, 187500.00, 187500.00, 187500.00, 187500.00, 0
72, 187500.00, -73493.25, 187500.00, 187500.00, 187500.00, 187500.00, 187500.00, 187500.00, 0
73, 187500.00, -73498.95, 187500.00, 187500.00, 187500.00, 187500.00, 187500.00, 187500.00, 0
74, 187500.00, -72106.59, 187500.00, 187500.00, 187500.00, 187500.00, 187500.00, 187500.00, 0
75, 187500.00, -71852.97, 187500.00, 187500.00, 187500.00, 187500.00, 187500.00, 187500.00, 0
76, 187500.00, -73339.45, 187500.00, 187500.00, 187500.00, 187500.00, 187500.00, 187500.00, 0
77, 187500.00, -73592.58, 187500.00, 187500.00, 187500.00, 187500.00, 187500.00, 187500.00, 0
78, 187500.00, -72400.54, 187500.00, 187500.00, 187500.00, 187500.00, 187500.00, 187500.00, 0
79, 187500.00, -71682.47, 187500.00, 187500.00, 187500.00, 187500.00, 187500.00, 187500.00, 0
80, 187500.00, -73141.77, 187500.00, 187500.00, 187500.00, 187500.00, 187500.00, 187500.00, 0
81, 187500.00, -73646.78, 187500.00, 187500.00, 187500.00, 187500.00, 187500.00, 187500.00, 0
82, 187500.00, -72701.02, 187500.00, 187500.00, 187500.00, 187500.00, 187500.00, 187500.00, 0
83, 187500.00, -71596.68, 187500.00, 187500.00, 187500.00, 187500.00, 187500.00, 187500.00, 0
84, 187500.00, -72895.72, 187500.00, 187500.00, 187500.00, 187500.00, 187500.00, 187500.00, 0
85, 187500.00, -73679.75, 187500.00, 187500.00, 187500.00, 187500.00, 187500.00, 187500.00, 0
86, 187500.00, -73000.77, 187500.00, 187500.00, 187500.00, 187500.00, 187500.00, 187500.00, 0
87, 187500.00, -71628.89, 187500.00, 187500.00, 187500.00, 187500.00, 187500.00, 187500.00, 0
88, 187500.00, -72623.63, 187500.00, 187500.00, 187500.00, 187500.00, 187500.00, 187500.00, 0
89, 187500.00, -73648.55, 187500.00, 187500.00, 187500.00, 187500.00, 187500.00, 187500.00, 0
90, 187500.00, -73222.81, 187500.00, 187500.00, 187500.00, 187500.00, 187500.00, 187500.00, 0
91, 187500.00, -71730.70, 187500.00, 187500.00, 187500.00, 187500.00, 187500.00, 187500.00, 0
92, 187500.00, -72310.08, 187500.00, 187500.00, 187500.00, 187500.00, 187500.00, 187500.00, 0
93, 187500.00, -73582.23, 187500.00, 187500.00, 187500.00, 187500.00, 187500.00, 187500.00, 0
94, 187500.00, -73425.45, 187500.00, 187500.00, 187500.00, 187500.00, 187500.00, 187500.00, 0
95, 187500.00, -71965.59, 187500.00, 187500.00, 187500.00, 187500.00, 187500.00, 187500.00, 0
96, 187500.00, -72041.88, 187500.00, 187500.00, 187500.00, 187500.00, 187500.00, 187500.00, 0
97, 187500.00, -73470.41, 187500.00, 187500.00, 187500.00, 187500.00, 187500.00, 187500.00, 0
98, 187500.00, -73563.92, 187500.00, 187500.00, 187500.00, 187500.00, 187500.00, 187500.00, 0
99, 187500.00, -72243.20, 187500.00, 187500.00, 187500.00, 187500.00, 187500.00, 187500.00, 0
100, 187500.00, -71820.27, 187500.00, 187500.00, 187500.00, 187500.00, 187500.00, 187500.00, 0
101, 187500.00, -73310.81, 187500.00, 187500.00, 187500.00, 187500.00, 187500.00, 187500.00, 0
102, 187500.00, -73649.42, 187500.00, 187500.00, 187500.00, 187500.00, 187500.00, 187500.00, 0
103, 187500.00, -72533.78, 187500.00, 187500.00, 187500.00, 187500.00, 187500.00, 187500.00, 0
104, 187500.00, -71664.85, 187500.00, 187500.00, 187500.00, 187500.00, 187500.00, 187500.00, 0
105, 187500.00, -73091.50, 187500.00, 187500.00, 187500.00, 187500.00, 187500.00, 187500.00, 0
106, 187500.00, -73687.58, 187500.00, 187500.00, 187500.00, 187500.00, 187500.00, 187500.00, 0
107, 187500.00, -72809.95, 187500.00, 187500.00, 187500.00, 187500.00, 187500.00, 187500.00, 0
108, 187500.00, -71603.68, 187500.00, 187500.00, 187500.00, 187500.00, 187500.00, 187500.00, 0
109, 187500.00, -72828.51, 187500.00, 187500.00, 187500.00, 187500.00, 187500.00, 187500.00, 0
110, 187500.00, -73708.92, 187500.00, 187500.00, 187500.00, 187500.00, 187500.00, 187500.00, 0
111, 187500.00, -73159.63, 187500.00, 187500.00, 187500.00, 187500.00, 187500.00, 187500.00, 0
112, 187500.00, -71741.56, 187500.00, 187500.00, 187500.00, 187500.00, 187500.00, 187500.00, 0
113, 187500.00, -72576.91, 187500.00, 187500.00, 187500.00, 187500.00, 187500.00, 187500.00, 0
114, 187500.00, -73689.36, 187500.00, 187500.00, 187500.00, 187500.00, 187500.00, 187500.00, 0
115, 187500.00, -73379.19, 187500.00, 187500.00, 187500.00, 187500.00, 187500.00, 187500.00, 0
116, 187500.00, -71884.13, 187500.00, 187500.00, 187500.00, 187500.00, 187500.00, 187500.00, 0
117, 187500.00, -72279.19, 187500.00, 187500.00, 187500.00, 187500.00, 187500.00, 187500.00, 0
118, 187500.00, -73605.05, 187500.00, 187500.00, 187500.00, 187500.00, 187500.00, 187500.00, 0
119, 187500.00, -73523.83, 187500.00, 187500.00, 187500.00, 187500.00, 187500.00, 187500.00, 0
120, 187500.00, -72088.11, 187500.00, 187500.00, 187500.00, 187500.00, 187500.00, 187500.00, 0
121, 187500.00, -71990.18, 187500.00, 187500.00, 187500.00, 187500.00, 187500.00, 187500.00, 0
122, 187500.00, -73460.15, 187500.00, 187500.00, 187500.00, 187500.00, 187500.00, 187500.00, 0
123, 187500.00, -73627.09, 187500.00, 187500.00, 187500.00, 187500.00, 187500.00, 187500.00, 0
124, 187500.00, -72370.09, 187500.00, 187500.00, 187500.00, 187500.00, 187500.00, 187500.00, 0
125, 187500.00, -71777.30, 187500.00, 187500.00, 187500.00, 187500.00, 187500.00, 187500.00, 0
126, 187500.00, -73261.82, 187500.00, 187500.00, 187500.00, 187500.00, 187500.00, 187500.00, 0
127, 187500.00, -73710.66, 187500.00, 187500.00, 187500.00, 187500.00, 187500.00, 187500.00, 0
128, 187500.00, -72687.71, 187500.00, 187500.00, 187500.00, 187500.00, 187500.00, 187500.00, 0
129, 187500.00, -71677.88, 187500.00, 187500.00, 187500.00, 187500.00, 187500.00, 187500.00, 0
130, 187500.00, -73036.98, 187500.00, 187500.00, 187500.00, 187500.00, 187500.00, 187500.00, 0
131, 187500.00, -73731.38, 187500.00, 187500.00, 187500.00, 187500.00, 187500.00, 187500.00, 0
132, 187500.00, -72964.14, 187500.00, 187500.00, 187500.00, 187500.00, 187500.00, 187500.00, 0
133, 187500.00, -71657.41, 187500.00, 187500.00, 187500.00, 187500.00, 187500.00, 187500.00, 0
134, 187500.00, -72755.62, 187500.00, 187500.00, 187500.00, 187500.00, 187500.00, 187500.00, 0
135, 187500.00, -73712.54, 187500.00, 187500.00, 187500.00, 187500.00, 187500.00, 187500.00, 0
136, 187500.00, -73212.96, 187500.00, 187500.00, 187500.00, 187500.00, 187500.00, 187500.00, 0
137, 187500.00, -71750.20, 187500.00, 187500.00, 187500.00, 187500.00, 187500.00, 187500.00, 0
138, 187500.00, -72477.92, 187500.00, 187500.00, 187500.00, 187500.00, 187500.00, 187500.00, 0
139, 187500.00, -73670.50, 187500.00, 187500.00, 187500.00, 187500.00, 187500.00, 187500.00, 0
140, 187500.00, -73439.38, 187500.00, 187500.00, 187500.00, 187500.00, 187500.00, 187500.00, 0
141, 187500.00, -71959.25, 187500.00, 187500.00, 187500.00, 187500.00, 187500.00, 187500.00, 0
142, 187500.00, -72197.02, 187500.00, 187500.00, 187500.00, 187500.00, 187500.00, 187500.00, 0
143, 187500.00, -73574.09, 187500.00, 187500.00, 187500.00, 187500.00, 187500.00, 187500.00, 0
144, 187500.00, -73570.43, 187500.00, 187500.00, 187500.00, 187500.00, 187500.00, 187500.00, 0
145, 187500.00, -72209.90, 187500.00, 187500.00, 187500.00, 187500.00, 187500.00, 187500.00, 0
146, 187500.00, -71962.16, 187500.00, 187500.00, 187500.00, 187500.00, 187500.00, 187500.00, 0
147, 187500.00, -73447.31, 187500.00, 187500.00, 187500.00, 187500.00, 187500.00, 187500.00, 0
148, 187500.00, -73709.66, 187500.00, 187500.00, 187500.00, 187500.00, 187500.00, 187500.00, 0
149, 187500.00, -72513.51, 187500.00, 187500.00, 187500.00, 187500.00, 187500.00, 187500.00, 0
150, 187500.00, -71769.23, 187500.00, 187500.00, 187500.00, 187500.00, 187500.00, 187500.00, 0
151, 187500.00, -73237.73, 187500.00, 187500.00, 187500.00, 187500.00, 187500.00, 187500.00, 0
152, 187500.00, -73759.39, 187500.00, 187500.00, 187500.00, 187500.00, 187500.00, 187500.00, 0
153, 187500.00, -72819.23, 187500.00, 187500.00, 187500.00, 187500.00, 187500.00, 187500.00, 0
154, 187500.00, -71698.49, 187500.00, 187500.00, 187500.00, 187500.00, 187500.00, 187500.00, 0
155, 187500.00, -72991.27, 187500.00, 187500.00, 187500.00, 187500.00, 187500.00, 187500.00, 0
156, 187500.00, -73770.70, 187500.00, 187500.00, 187500.00, 187500.00, 187500.00, 187500.00, 0
157, 187500.00, -73094.20, 187500.00, 187500.00, 187500.00, 187500.00, 187500.00, 187500.00, 0
158, 187500.00, -71712.59, 187500.00, 187500.00, 187500.00, 187500.00, 187500.00, 187500.00, 0
159, 187500.00, -72719.88, 187500.00, 187500.00, 187500.00, 187500.00, 187500.00, 187500.00, 0
160, 187500.00, -73776.09, 187500.00, 187500.00, 187500.00, 187500.00, 187500.00, 187500.00, 0
161, 187500.00, -73339.18, 187500.00, 187500.00, 187500.00, 187500.00, 187500.00, 187500.00, 0
162, 187500.00, -71842.84, 187500.00, 187500.00, 187500.00, 187500.00, 187500.00, 187500.00, 0
163, 187500.00, -72426.29, 187500.00, 187500.00, 187500.00, 187500.00, 187500.00, 187500.00, 0
164, 187500.00, -73709.19, 187500.00, 187500.00, 187500.00, 187500.00, 187500.00, 187500.00, 0
165, 187500.00, -73544.37, 187500.00, 187500.00, 187500.00, 187500.00, 187500.00, 187500.00, 0
166, 187500.00, -72079.41, 187500.00, 187500.00, 187500.00, 187500.00, 187500.00, 187500.00, 0
167, 187500.00, -72141.68, 187500.00, 187500.00, 187500.00, 187500.00, 187500.00, 187500.00, 0
168, 187500.00, -73564.59, 187500.00, 187500.00, 187500.00, 187500.00, 187500.00, 187500.00, 0
169, 187500.00, -73658.27, 187500.00, 187500.00, 187500.00, 187500.00, 187500.00, 187500.00, 0
170, 187500.00, -72351.19, 187500.00, 187500.00, 187500.00, 187500.00, 187500.00, 187500.00, 0
171, 187500.00, -71912.80, 187500.00, 187500.00, 187500.00, 187500.00, 187500.00, 187500.00, 0
172, 187500.00, -73403.41, 187500.00, 187500.00, 187500.00, 187500.00, 187500.00, 187500.00, 0
173, 187500.00, -73762.48, 187500.00, 187500.00, 187500.00, 187500.00, 187500.00, 187500.00, 0
174, 187500.00, -72649.91, 187500.00, 187500.00, 187500.00, 187500.00, 187500.00, 187500.00, 0
175, 187500.00, -71764.20, 187500.00, 187500.00, 187500.00, 187500.00, 187500.00, 187500.00, 0
176, 187500.00, -73194.14, 187500.00, 187500.00, 187500.00, 187500.00, 187500.00, 187500.00, 0
177, 187500.00, -73804.16, 187500.00, 187500.00, 187500.00, 187500.00, 187500.00, 187500.00, 0
178, 187500.00, -72949.16, 187500.00, 187500.00, 187500.00, 187500.00, 187500.00, 187500.00, 0
179, 187500.00, -71734.99, 187500.00, 187500.00, 187500.00, 187500.00, 187500.00, 187500.00, 0
180, 187500.00, -72929.60, 187500.00, 187500.00, 187500.00, 187500.00, 187500.00, 187500.00, 0
181, 187500.00, -73795.55, 187500.00, 187500.00, 187500.00, 187500.00, 187500.00, 187500.00, 0
182, 187500.00, -73212.29, 187500.00, 187500.00, 187500.00, 187500.00, 187500.00, 187500.00, 0
183, 187500.00, -71799.81, 187500.00, 187500.00, 187500.00, 187500.00, 187500.00, 187500.00, 0
184, 187500.00, -72660.98, 187500.00, 187500.00, 187500.00, 187500.00, 187500.00, 187500.00, 0
185, 187500.00, -73789.74, 187500.00, 187500.00, 187500.00, 187500.00, 187500.00, 187500.00, 0
186, 187500.00, -73462.27, 187500.00, 187500.00, 187500.00, 187500.00, 187500.00, 187500.00, 0
187, 187500.00, -71959.63, 187500.00, 187500.00, 187500.00, 187500.00, 187500.00, 187500.00, 0
188, 187500.00, -72347.74, 187500.00, 187500.00, 187500.00, 187500.00, 187500.00, 187500.00, 0
189, 187500.00, -73690.57, 187500.00, 187500.00, 187500.00, 187500.00, 187500.00, 187500.00, 0
190, 187500.00, -73627.85, 187500.00, 187500.00, 187500.00, 187500.00, 187500.00, 187500.00, 0
191, 187500.00, -72190.81, 187500.00, 187500.00, 187500.00, 187500.00, 187500.00, 187500.00, 0
192, 187500.00, -72064.88, 187500.00, 187500.00, 187500.00, 187500.00, 187500.00, 187500.00, 0
193, 187500.00, -73539.96, 187500.00, 187500.00, 187500.00, 187500.00, 187500.00, 187500.00, 0
194, 187500.00, -73727.16, 187500.00, 187500.00, 187500.00, 187500.00, 187500.00, 187500.00, 0
195, 187500.00, -72456.02, 187500.00, 187500.00, 187500.00, 187500.00, 187500.00, 187500.00, 0
196, 187500.00, -71874.53, 187500.00, 187500.00, 187500.00, 187500.00, 187500.00, 187500.00, 0
197, 187500.00, -73389.72, 187500.00, 187500.00, 187500.00, 187500.00, 187500.00, 187500.00, 0
198, 187500.00, -73829.02, 187500.00, 187500.00, 187500.00, 187500.00, 187500.00, 187500.00, 0
199, 187500.00, -72788.70, 187500.00, 187500.00, 187500.00, 187500.00, 187500.00, 187500.00, 0
200, 187500.00, -71773.48, 187500.00, 187500.00, 187500.00, 187500.00, 187500.00, 187500.00, 0
201, 187500.00, -73138.95, 187500.00, 187500.00, 187500.00, 187500.00, 187500.00, 187500.00, 0
202, 187500.00, -73846.12, 187500.00, 187500.00, 187500.00, 187500.00, 187500.00, 187500.00, 0
203, 187500.00, -73084.32, 187500.00, 187500.00, 187500.00, 187500.00, 187500.00, 187500.00, 0
204, 187500.00, -71779.77, 187500.00, 187500.00, 187500.00, 187500.00, 187500.00, 187500.00, 0
205, 187500.00, -72878.04, 187500.00, 187500.00, 187500.00, 187500.00, 187500.00, 187500.00, 0
206, 187500.00, -73845.69, 187500.00, 187500.00, 187500.00, 187500.00, 187500.00, 187500.00, 0
207, 187500.00, -73348.21, 187500.00, 187500.00, 187500.00, 187500.00, 187500.00, 187500.00, 0
208, 187500.00, -71869.48, 187500.00, 187500.00, 187500.00, 187500.00, 187500.00, 187500.00, 0
209, 187500.00, -72567.66, 187500.00, 187500.00, 187500.00, 187500.00, 187500.00, 187500.00, 0
210, 187500.00, -73773.90, 187500.00, 187500.00, 187500.00, 187500.00, 187500.00, 187500.00, 0
211, 187500.00, -73552.59, 187500.00, 187500.00, 187500.00, 187500.00, 187500.00, 187500.00, 0
212, 187500.00, -72065.51, 187500.00, 187500.00, 187500.00, 187500.00, 187500.00, 187500.00, 0
213, 187500.00, -72283.28, 187500.00, 187500.00, 187500.00, 187500.00, 187500.00, 187500.00, 0
214, 187500.00, -73678.68, 187500.00, 187500.00, 187500.00, 187500.00, 187500.00, 187500.00, 0
215, 187500.00, -73700.88, 187500.00, 187500.00, 187500.00, 187500.00, 187500.00, 187500.00, 0
216, 187500.00, -72333.82, 187500.00, 187500.00, 187500.00, 187500.00, 187500.00, 187500.00, 0
217, 187500.00, -72048.88, 187500.00, 187500.00, 187500.00, 187500.00, 187500.00, 187500.00, 0
218, 187500.00, -73536.50, 187500.00, 187500.00, 187500.00, 187500.00, 187500.00, 187500.00, 0
219, 187500.00, -73813.30, 187500.00, 187500.00, 187500.00, 187500.00, 187500.00, 187500.00, 0
220, 187500.00, -72630.70, 187500.00, 187500.00, 187500.00, 187500.00, 187500.00, 187500.00, 0
221, 187500.00, -71869.17, 187500.00, 187500.00, 187500.00, 187500.00, 187500.00, 187500.00, 0
222, 187500.00, -73329.48, 187500.00, 187500.00, 187500.00, 187500.00, 187500.00, 187500.00, 0
223, 187500.00, -73863.64, 187500.00, 187500.00, 187500.00, 187500.00, 187500.00, 187500.00, 0
224, 187500.00, -72935.57, 187500.00, 187500.00, 187500.00, 187500.00, 187500.00, 187500.00, 0
225, 187500.00, -71803.61, 187500.00, 187500.00, 187500.00, 187500.00, 187500.00, 187500.00, 0
226, 187500.00, -73064.97, 187500.00, 187500.00, 187500.00, 187500.00, 187500.00, 187500.00, 0
227, 187500.00, -73868.18, 187500.00, 187500.00, 187500.00, 187500.00, 187500.00, 187500.00, 0
228, 187500.00, -73205.02, 187500.00, 187500.00, 187500.00, 187500.00, 187500.00, 187500.00, 0
229, 187500.00, -71835.69, 187500.00, 187500.00, 187500.00, 187500.00, 187500.00, 187500.00, 0
230, 187500.00, -72825.55, 187500.00, 187500.00, 187500.00, 187500.00, 187500.00, 187500.00, 0
231, 187500.00, -73874.52, 187500.00, 187500.00, 187500.00, 187500.00, 187500.00, 187500.00, 0
232, 187500.00, -73457.98, 187500.00, 187500.00, 187500.00, 187500.00, 187500.00, 187500.00, 0
233, 187500.00, -71950.62, 187500.00, 187500.00, 187500.00, 187500.00, 187500.00, 187500.00, 0
234, 187500.00, -72494.05, 187500.00, 187500.00, 187500.00, 187500.00, 187500.00, 187500.00, 0
235, 187500.00, -73784.38, 187500.00, 187500.00, 187500.00, 187500.00, 187500.00, 187500.00, 0
236, 187500.00, -73643.90, 187500.00, 187500.00, 187500.00, 187500.00, 187500.00, 187500.00, 0
237, 187500.00, -72168.46, 187500.00, 187500.00, 187500.00, 187500.00, 187500.00, 187500.00, 0
238, 187500.00, -72209.70, 187500.00, 187500.00, 187500.00, 187500.00, 187500.00, 187500.00, 0
239, 187500.00, -73649.20, 187500.00, 187500.00, 187500.00, 187500.00, 187500.00, 187500.00, 0
240, 187500.00, -73766.30, 187500.00, 187500.00, 187500.00, 187500.00, 187500.00, 187500.00, 0
241, 187500.00, -72465.88, 187500.00, 187500.00, 187500.00, 187500.00, 187500.00, 187500.00, 0
242, 187500.00, -72007.82, 187500.00, 187500.00, 187500.00, 187500.00, 187500.00, 187500.00, 0
243, 187500.00, -73499.69, 187500.00, 187500.00, 187500.00, 187500.00, 187500.00, 187500.00, 0
244, 187500.00, -73862.14, 187500.00, 187500.00, 187500.00, 187500.00, 187500.00, 187500.00, 0
245, 187500.00, -72762.41, 187500.00, 187500.00, 187500.00, 187500.00, 187500.00, 187500.00, 0
246, 187500.00, -71857.88, 187500.00, 187500.00, 187500.00, 187500.00, 187500.00, 187500.00, 0
247, 187500.00, -73260.68, 187500.00, 187500.00, 187500.00, 187500.00, 187500.00, 187500.00, 0
248, 187500.00, -73893.21, 187500.00, 187500.00, 187500.00, 187500.00, 187500.00, 187500.00, 0
249, 187500.00, -73076.91, 187500.00, 187500.00, 187500.00, 187500.00, 187500.00, 187500.00, 0
250, 187500.00, -71837.63, 187500.00, 187500.00, 187500.00, 187500.00, 187500.00, 187500.00, 0
251, 187500.00, -73034.41, 187500.00, 187500.00, 187500.00, 187500.00, 187500.00, 187500.00, 0
252, 187500.00, -73918.06, 187500.00, 187500.00, 187500.00, 187500.00, 187500.00, 187500.00, 0
253, 187500.00, -73334.62, 187500.00, 187500.00, 187500.00, 187500.00, 187500.00, 187500.00, 0
254, 187500.00, -71894.98, 187500.00, 187500.00, 187500.00, 187500.00, 187500.00, 187500.00, 0
255, 187500.00, -72740.64, 187500.00, 187500.00, 187500.00, 187500.00, 187500.00, 187500.00, 0
0, 187500.00, -73876.96, 187500.00, 187500.00, 187500.00, 187500.00, 187500.00, 187500.00, 0
1, 187500.00, -73564.26, 187500.00, 187500.00, 187500.00, 187500.00, 187500.00, 187500.00, 0
2, 187500.00, -72061.10, 187500.00, 187500.00, 187500.00, 187500.00, 187500.00, 187500.00, 0
3, 187500.00, -72432.30, 187500.00, 187500.00, 187500.00, 187500.00, 187500.00, 187500.00, 0
4, 187500.00, -73771.35, 187500.00, 187500.00, 187500.00, 187500.00, 187500.00, 187500.00, 0
5, 187500.00, -73717.44, 187500.00, 187500.00, 187500.00, 187500.00, 187500.00, 187500.00, 0
6, 187500.00, -72295.13, 187500.00, 187500.00, 187500.00, 187500.00, 187500.00, 187500.00, 0
7, 187500.00, -72158.54, 187500.00, 187500.00, 187500.00, 187500.00, 187500.00, 187500.00, 0
8, 187500.00, -73628.19, 187500.00, 187500.00, 187500.00, 187500.00, 187500.00, 187500.00, 0
9, 187500.00, -73810.42, 187500.00, 187500.00, 187500.00, 187500.00, 187500.00, 187500.00, 0
10, 187500.00, -72558.14, 187500.00, 187500.00, 187500.00, 187500.00, 187500.00, 187500.00, 0
11, 187500.00, -71969.20, 187500.00, 187500.00, 187500.00, 187500.00, 187500.00, 187500.00, 0
12, 187500.00, -73459.81, 187500.00, 187500.00, 187500.00, 187500.00, 187500.00, 187500.00, 0
13, 187500.00, -73902.22, 187500.00, 187500.00, 187500.00, 187500.00, 187500.00, 187500.00, 0
14, 187500.00, -72883.00, 187500.00, 187500.00, 187500.00, 187500.00, 187500.00, 187500.00, 0
15, 187500.00, -71863.12, 187500.00, 187500.00, 187500.00, 187500.00, 187500.00, 187500.00, 0
16, 187500.00, -73213.16, 187500.00, 187500.00, 187500.00, 187500.00, 187500.00, 187500.00, 0
17, 187500.00, -73932.55, 187500.00, 187500.00, 187500.00, 187500.00, 187500.00, 187500.00, 0
18, 187500.00, -73183.01, 187500.00, 187500.00, 187500.00, 187500.00, 187500.00, 187500.00, 0
19, 187500.00, -71847.31, 187500.00, 187500.00, 187500.00, 187500.00, 187500.00, 187500.00, 0
20, 187500.00, -72935.10, 187500.00, 187500.00, 187500.00, 187500.00, 187500.00, 187500.00, 0
21, 187500.00, -73927.70, 187500.00, 187500.00, 187500.00, 187500.00, 187500.00, 187500.00, 0
22, 187500.00, -73456.23, 187500.00, 187500.00, 187500.00, 187500.00, 187500.00, 187500.00, 0
23, 187500.00, -71973.55, 187500.00, 187500.00, 187500.00, 187500.00, 187500.00, 187500.00, 0
24, 187500.00, -72650.19, 187500.00, 187500.00, 187500.00, 187500.00, 187500.00, 187500.00, 0
25, 187500.00, -73876.24, 187500.00, 187500.00, 187500.00, 187500.00, 187500.00, 187500.00, 0
26, 187500.00, -73652.02, 187500.00, 187500.00, 187500.00, 187500.00, 187500.00, 187500.00, 0
27, 187500.00, -72166.56, 187500.00, 187500.00, 187500.00, 187500.00, 187500.00, 187500.00, 0
28, 187500.00, -72370.74, 187500.00, 187500.00, 187500.00, 187500.00, 187500.00, 187500.00, 0
29, 187500.00, -73777.38, 187500.00, 187500.00, 187500.00, 187500.00, 187500.00, 187500.00, 0
30, 187500.00, -73808.85, 187500.00, 187500.00, 187500.00, 187500.00, 187500.00, 187500.00, 0
31, 187500.00, -72433.22, 187500.00, 187500.00, 187500.00, 187500.00, 187500.00, 187500.00, 0
32, 187500.00, -72131.67, 187500.00, 187500.00, 187500.00, 187500.00, 187500.00, 187500.00, 0
33, 187500.00, -73615.89, 187500.00, 187500.00, 187500.00, 187500.00, 187500.00, 187500.00, 0
34, 187500.00, -73896.74, 187500.00, 187500.00, 187500.00, 187500.00, 187500.00, 187500.00, 0
35, 187500.00, -72726.78, 187500.00, 187500.00, 187500.00, 187500.00, 187500.00, 187500.00, 0
36, 187500.00, -71949.73, 187500.00, 187500.00, 187500.00, 187500.00, 187500.00, 187500.00, 0
37, 187500.00, -73398.48, 187500.00, 187500.00, 187500.00, 187500.00, 187500.00, 187500.00, 0
38, 187500.00, -73950.68, 187500.00, 187500.00, 187500.00, 187500.00, 187500.00, 187500.00, 0
39, 187500.00, -73025.41, 187500.00, 187500.00, 187500.00, 187500.00, 187500.00, 187500.00, 0
40, 187500.00, -71889.33, 187500.00, 187500.00, 187500.00, 187500.00, 187500.00, 187500.00, 0
41, 187500.00, -73173.38, 187500.00, 187500.00, 187500.00, 187500.00, 187500.00, 187500.00, 0
42, 187500.00, -73970.39, 187500.00, 187500.00, 187500.00, 187500.00, 187500.00, 187500.00, 0
43, 187500.00, -73313.77, 187500.00, 187500.00, 187500.00, 187500.00, 187500.00, 187500.00, 0
44, 187500.00, -71916.47, 187500.00, 187500.00, 187500.00, 187500.00, 187500.00, 187500.00, 0
45, 187500.00, -72885.37, 187500.00, 187500.00, 187500.00, 187500.00, 187500.00, 187500.00, 0
46, 187500.00, -73949.94, 187500.00, 187500.00, 187500.00, 187500.00, 187500.00, 187500.00, 0
47, 187500.00, -73567.55, 187500.00, 187500.00, 187500.00, 187500.00, 187500.00, 187500.00, 0
48, 187500.00, -72078.63, 187500.00, 187500.00, 187500.00, 187500.00, 187500.00, 187500.00, 0
49, 187500.00, -72592.18, 187500.00, 187500.00, 187500.00, 187500.00, 187500.00, 187500.00, 0
50, 187500.00, -73881.81, 187500.00, 187500.00, 187500.00, 187500.00, 187500.00, 187500.00, 0
51, 187500.00, -73747.68, 187500.00, 187500.00, 187500.00, 187500.00, 187500.00, 187500.00, 0
52, 187500.00, -72277.36, 187500.00, 187500.00, 187500.00, 187500.00, 187500.00, 187500.00, 0
53, 187500.00, -72293.63, 187500.00, 187500.00, 187500.00, 187500.00, 187500.00, 187500.00, 0
54, 187500.00, -73737.91, 187500.00, 187500.00, 187500.00, 187500.00, 187500.00, 187500.00, 0
55, 187500.00, -73860.40, 187500.00, 187500.00, 187500.00, 187500.00, 187500.00, 187500.00, 0
56, 187500.00, -72555.08, 187500.00, 187500.00, 187500.00, 187500.00, 187500.00, 187500.00, 0
57, 187500.00, -72093.63, 187500.00, 187500.00, 187500.00, 187500.00, 187500.00, 187500.00, 0
58, 187500.00, -73596.20, 187500.00, 187500.00, 187500.00, 187500.00, 187500.00, 187500.00, 0
59, 187500.00, -73959.73, 187500.00, 187500.00, 187500.00, 187500.00, 187500.00, 187500.00, 0
60, 187500.00, -72870.26, 187500.00, 187500.00, 187500.00, 187500.00, 187500.00, 187500.00, 0
61, 187500.00, -71963.72, 187500.00, 187500.00, 187500.00, 187500.00, 187500.00, 187500.00, 0
62, 187500.00, -73364.84, 187500.00, 187500.00, 187500.00, 187500.00, 187500.00, 187500.00, 0
63, 187500.00, -73980.85, 187500.00, 187500.00, 187500.00, 187500.00, 187500.00, 187500.00, 0
64, 187500.00, -73152.27, 187500.00, 187500.00, 187500.00, 187500.00, 187500.00, 187500.00, 0
65, 187500.00, -71913.77, 187500.00, 187500.00, 187500.00, 187500.00, 187500.00, 187500.00, 0
66, 187500.00, -73100.02, 187500.00, 187500.00, 187500.00, 187500.00, 187500.00, 187500.00, 0
67, 187500.00, -73994.27, 187500.00, 187500.00, 187500.00, 187500.00, 187500.00, 187500.00, 0
68, 187500.00, -73434.17, 187500.00, 187500.00, 187500.00, 187500.00, 187500.00, 187500.00, 0
69, 187500.00, -71985.51, 187500.00, 187500.00, 187500.00, 187500.00, 187500.00, 187500.00, 0
70, 187500.00, -72797.84, 187500.00, 187500.00, 187500.00, 187500.00, 187500.00, 187500.00, 0
71, 187500.00, -73941.38, 187500.00, 187500.00, 187500.00, 187500.00, 187500.00, 187500.00, 0
72, 187500.00, -73647.30, 187500.00, 187500.00, 187500.00, 187500.00, 187500.00, 187500.00, 0
73, 187500.00, -72163.74, 187500.00, 187500.00, 187500.00, 187500.00, 187500.00, 187500.00, 0
74, 187500.00, -72526.09, 187500.00, 187500.00, 187500.00, 187500.00, 187500.00, 187500.00, 0
75, 187500.00, -73859.98, 187500.00, 187500.00, 187500.00, 187500.00, 187500.00, 187500.00, 0
76, 187500.00, -73803.27, 187500.00, 187500.00, 187500.00, 187500.00, 187500.00, 187500.00, 0
77, 187500.00, -72404.79, 187500.00, 187500.00, 187500.00, 187500.00, 187500.00, 187500.00, 0
78, 187500.00, -72267.48, 187500.00, 187500.00, 187500.00, 187500.00, 187500.00, 187500.00, 0
79, 187500.00, -73739.03, 187500.00, 187500.00, 187500.00, 187500.00, 187500.00, 187500.00, 0
80, 187500.00, -73931.68, 187500.00, 187500.00, 187500.00, 187500.00, 187500.00, 187500.00, 0
81, 187500.00, -72698.35, 187500.00, 187500.00, 187500.00, 187500.00, 187500.00, 187500.00, 0
82, 187500.00, -72073.91, 187500.00, 187500.00, 187500.00, 187500.00, 187500.00, 187500.00, 0
83, 187500.00, -73552.05, 187500.00, 187500.00, 187500.00, 187500.00, 187500.00, 187500.00, 0
84, 187500.00, -74008.59, 187500.00, 187500.00, 187500.00, 187500.00, 187500.00, 187500.00, 0
85, 187500.00, -73004.44, 187500.00, 187500.00, 187500.00, 187500.00, 187500.00, 187500.00, 0
86, 187500.00, -71961.17, 187500.00, 187500.00, 187500.00, 187500.00, 187500.00, 187500.00, 0
87, 187500.00, -73312.40, 187500.00, 187500.00, 187500.00, 187500.00, 187500.00, 187500.00, 0
88, 187500.00, -74043.86, 187500.00, 187500.00, 187500.00, 187500.00, 187500.00, 187500.00, 0
89, 187500.00, -73302.32, 187500.00, 187500.00, 187500.00, 187500.00, 187500.00, 187500.00, 0
90, 187500.00, -71978.74, 187500.00, 187500.00, 187500.00, 187500.00, 187500.00, 187500.00, 0
91, 187500.00, -73041.34, 187500.00, 187500.00, 187500.00, 187500.00, 187500.00, 187500.00, 0
92, 187500.00, -74015.05, 187500.00, 187500.00, 187500.00, 187500.00, 187500.00, 187500.00, 0
93, 187500.00, -73547.63, 187500.00, 187500.00, 187500.00, 187500.00, 187500.00, 187500.00, 0
94, 187500.00, -72076.46, 187500.00, 187500.00, 187500.00, 187500.00, 187500.00, 187500.00, 0
95, 187500.00, -72751.28, 187500.00, 187500.00, 187500.00, 187500.00, 187500.00, 187500.00, 0
96, 187500.00, -73967.04, 187500.00, 187500.00, 187500.00, 187500.00, 187500.00, 187500.00, 0
97, 187500.00, -73766.88, 187500.00, 187500.00, 187500.00, 187500.00, 187500.00, 187500.00, 0
98, 187500.00, -72288.06, 187500.00, 187500.00, 187500.00, 187500.00, 187500.00, 187500.00, 0
99, 187500.00, -72471.22, 187500.00, 187500.00, 187500.00, 187500.00, 187500.00, 187500.00, 0
100, 187500.00, -73861.54, 187500.00, 187500.00, 187500.00, 187500.00, 187500.00, 187500.00, 0
101, 187500.00, -73894.89, 187500.00, 187500.00, 187500.00, 187500.00, 187500.00, 187500.00, 0
102, 187500.00, -72546.95, 187500.00, 187500.00, 187500.00, 187500.00, 187500.00, 187500.00, 0
103, 187500.00, -72232.16, 187500.00, 187500.00, 187500.00, 187500.00, 187500.00, 187500.00, 0
104, 187500.00, -73721.39, 187500.00, 187500.00, 187500.00, 187500.00, 187500.00, 187500.00, 0
105, 187500.00, -74004.66, 187500.00, 187500.00, 187500.00, 187500.00, 187500.00, 187500.00, 0
106, 187500.00, -72846.57, 187500.00, 187500.00, 187500.00, 187500.00, 187500.00, 187500.00, 0
107, 187500.00, -72063.32, 187500.00, 187500.00, 187500.00, 187500.00, 187500.00, 187500.00, 0
108, 187500.00, -73507.93, 187500.00, 187500.00, 187500.00, 187500.00, 187500.00, 187500.00, 0
109, 187500.00, -74050.12, 187500.00, 187500.00, 187500.00, 187500.00, 187500.00, 187500.00, 0
110, 187500.00, -73133.70, 187500.00, 187500.00, 187500.00, 187500.00, 187500.00, 187500.00, 0
111, 187500.00, -71987.84, 187500.00, 187500.00, 187500.00, 187500.00, 187500.00, 187500.00, 0
112, 187500.00, -73260.99, 187500.00, 187500.00, 187500.00, 187500.00, 187500.00, 187500.00, 0
113, 187500.00, -74067.48, 187500.00, 187500.00, 187500.00, 187500.00, 187500.00, 187500.00, 0
114, 187500.00, -73417.99, 187500.00, 187500.00, 187500.00, 187500.00, 187500.00, 187500.00, 0
115, 187500.00, -72022.23, 187500.00, 187500.00, 187500.00, 187500.00, 187500.00, 187500.00, 0
116, 187500.00, -72978.13, 187500.00, 187500.00, 187500.00, 187500.00, 187500.00, 187500.00, 0
117, 187500.00, -74049.54, 187500.00, 187500.00, 187500.00, 187500.00, 187500.00, 187500.00, 0
118, 187500.00, -73671.84, 187500.00, 187500.00, 187500.00, 187500.00, 187500.00, 187500.00, 0
119, 187500.00, -72172.64, 187500.00, 187500.00, 187500.00, 187500.00, 187500.00, 187500.00, 0
120, 187500.00, -72688.18, 187500.00, 187500.00, 187500.00, 187500.00, 187500.00, 187500.00, 0
121, 187500.00, -73977.14, 187500.00, 187500.00, 187500.00, 187500.00, 187500.00, 187500.00, 0
122, 187500.00, -73856.51, 187500.00, 187500.00, 187500.00, 187500.00, 187500.00, 187500.00, 0
123, 187500.00, -72396.18, 187500.00, 187500.00, 187500.00, 187500.00, 187500.00, 187500.00, 0
124, 187500.00, -72404.25, 187500.00, 187500.00, 187500.00, 187500.00, 187500.00, 187500.00, 0
125, 187500.00, -73863.48, 187500.00, 187500.00, 187500.00, 187500.00, 187500.00, 187500.00, 0
126, 187500.00, -73979.96, 187500.00, 187500.00, 187500.00, 187500.00, 187500.00, 187500.00, 0
127, 187500.00, -72671.91, 187500.00, 187500.00, 187500.00, 187500.00, 187500.00, 187500.00, 0
128, 187500.00, -72188.66, 187500.00, 187500.00, 187500.00, 187500.00, 187500.00, 187500.00, 0
129, 187500.00, -73685.81, 187500.00, 187500.00, 187500.00, 187500.00, 187500.00, 187500.00, 0
130, 187500.00, -74057.83, 187500.00, 187500.00, 187500.00, 187500.00, 187500.00, 187500.00, 0
131, 187500.00, -72964.25, 187500.00, 187500.00, 187500.00, 187500.00, 187500.00, 187500.00, 0
132, 187500.00, -72036.52, 187500.00, 187500.00, 187500.00, 187500.00, 187500.00, 187500.00, 0
133, 187500.00, -73444.73, 187500.00, 187500.00, 187500.00, 187500.00, 187500.00, 187500.00, 0
134, 187500.00, -74099.74, 187500.00, 187500.00, 187500.00, 187500.00, 187500.00, 187500.00, 0
135, 187500.00, -73262.65, 187500.00, 187500.00, 187500.00, 187500.00, 187500.00, 187500.00, 0
136, 187500.00, -72002.99, 187500.00, 187500.00, 187500.00, 187500.00, 187500.00, 187500.00, 0
137, 187500.00, -73197.73, 187500.00, 187500.00, 187500.00, 187500.00, 187500.00, 187500.00, 0
138, 187500.00, -74111.92, 187500.00, 187500.00, 187500.00, 187500.00, 187500.00, 187500.00, 0
139, 187500.00, -73541.84, 187500.00, 187500.00, 187500.00, 187500.00, 187500.00, 187500.00, 0
140, 187500.00, -72091.10, 187500.00, 187500.00, 187500.00, 187500.00, 187500.00, 187500.00, 0
141, 187500.00, -72892.95, 187500.00, 187500.00, 187500.00, 187500.00, 187500.00, 187500.00, 0
142, 187500.00, -74028.77, 187500.00, 187500.00, 187500.00, 187500.00, 187500.00, 187500.00, 0
143, 187500.00, -73749.89, 187500.00, 187500.00, 187500.00, 187500.00, 187500.00, 187500.00, 0
144, 187500.00, -72273.16, 187500.00, 187500.00, 187500.00, 187500.00, 187500.00, 187500.00, 0
145, 187500.00, -72616.55, 187500.00, 187500.00, 187500.00, 187500.00, 187500.00, 187500.00, 0
146, 187500.00, -73959.88, 187500.00, 187500.00, 187500.00, 187500.00, 187500.00, 187500.00, 0
147, 187500.00, -73922.16, 187500.00, 187500.00, 187500.00, 187500.00, 187500.00, 187500.00, 0
148, 187500.00, -72515.80, 187500.00, 187500.00, 187500.00, 187500.00, 187500.00, 187500.00, 0
149, 187500.00, -72347.59, 187500.00, 187500.00, 187500.00, 187500.00, 187500.00, 187500.00, 0
150, 187500.00, -73832.77, 187500.00, 187500.00, 187500.00, 187500.00, 187500.00, 187500.00, 0
151, 187500.00, -74054.21, 187500.00, 187500.00, 187500.00, 187500.00, 187500.00, 187500.00, 0
152, 187500.00, -72811.72, 187500.00, 187500.00, 187500.00, 187500.00, 187500.00, 187500.00, 0
153, 187500.00, -72156.52, 187500.00, 187500.00, 187500.00, 187500.00, 187500.00, 187500.00, 0
154, 187500.00, -73630.47, 187500.00, 187500.00, 187500.00, 187500.00, 187500.00, 187500.00, 0
155, 187500.00, -74101.40, 187500.00, 187500.00, 187500.00, 187500.00, 187500.00, 187500.00, 0
156, 187500.00, -73106.50, 187500.00, 187500.00, 187500.00, 187500.00, 187500.00, 187500.00, 0
157, 187500.00, -72076.69, 187500.00, 187500.00, 187500.00, 187500.00, 187500.00, 187500.00, 0
158, 187500.00, -73416.23, 187500.00, 187500.00, 187500.00, 187500.00, 187500.00, 187500.00, 0
159, 187500.00, -74138.59, 187500.00, 187500.00, 187500.00, 187500.00, 187500.00, 187500.00, 0
160, 187500.00, -73401.77, 187500.00, 187500.00, 187500.00, 187500.00, 187500.00, 187500.00, 0
161, 187500.00, -72068.93, 187500.00, 187500.00, 187500.00, 187500.00, 187500.00, 187500.00, 0
162, 187500.00, -73123.41, 187500.00, 187500.00, 187500.00, 187500.00, 187500.00, 187500.00, 0
163, 187500.00, -74112.34, 187500.00, 187500.00, 187500.00, 187500.00, 187500.00, 187500.00, 0
164, 187500.00, -73650.00, 187500.00, 187500.00, 187500.00, 187500.00, 187500.00, 187500.00, 0
165, 187500.00, -72172.33, 187500.00, 187500.00, 187500.00, 187500.00, 187500.00, 187500.00, 0
166, 187500.00, -72821.84, 187500.00, 187500.00, 187500.00, 187500.00, 187500.00, 187500.00, 0
167, 187500.00, -74044.71, 187500.00, 187500.00, 187500.00, 187500.00, 187500.00, 187500.00, 0
168, 187500.00, -73845.89, 187500.00, 187500.00, 187500.00, 187500.00, 187500.00, 187500.00, 0
169, 187500.00, -72359.99, 187500.00, 187500.00, 187500.00, 187500.00, 187500.00, 187500.00, 0
170, 187500.00, -72518.02, 187500.00, 187500.00, 187500.00, 187500.00, 187500.00, 187500.00, 0
171, 187500.00, -73938.16, 187500.00, 187500.00, 187500.00, 187500.00, 187500.00, 187500.00, 0
172, 187500.00, -74005.98, 187500.00, 187500.00, 187500.00, 187500.00, 187500.00, 187500.00, 0
173, 187500.00, -72640.17, 187500.00, 187500.00, 187500.00, 187500.00, 187500.00, 187500.00, 0
174, 187500.00, -72288.94, 187500.00, 187500.00, 187500.00, 187500.00, 187500.00, 187500.00, 0
175, 187500.00, -73776.22, 187500.00, 187500.00, 187500.00, 187500.00, 187500.00, 187500.00, 0
176, 187500.00, -74071.17, 187500.00, 187500.00, 187500.00, 187500.00, 187500.00, 187500.00, 0
177, 187500.00, -72930.99, 187500.00, 187500.00, 187500.00, 187500.00, 187500.00, 187500.00, 0
178, 187500.00, -72136.14, 187500.00, 187500.00, 187500.00, 187500.00, 187500.00, 187500.00, 0
179, 187500.00, -73569.69, 187500.00, 187500.00, 187500.00, 187500.00, 187500.00, 187500.00, 0
180, 187500.00, -74134.37, 187500.00, 187500.00, 187500.00, 187500.00, 187500.00, 187500.00, 0
181, 187500.00, -73237.03, 187500.00, 187500.00, 187500.00, 187500.00, 187500.00, 187500.00, 0
182, 187500.00, -72087.34, 187500.00, 187500.00, 187500.00, 187500.00, 187500.00, 187500.00, 0
183, 187500.00, -73323.38, 187500.00, 187500.00, 187500.00, 187500.00, 187500.00, 187500.00, 0
184, 187500.00, -74146.92, 187500.00, 187500.00, 187500.00, 187500.00, 187500.00, 187500.00, 0
185, 187500.00, -73514.37, 187500.00, 187500.00, 187500.00, 187500.00, 187500.00, 187500.00, 0
186, 187500.00, -72109.83, 187500.00, 187500.00, 187500.00, 187500.00, 187500.00, 187500.00, 0
187, 187500.00, -73050.62, 187500.00, 187500.00, 187500.00, 187500.00, 187500.00, 187500.00, 0
188, 187500.00, -74125.60, 187500.00, 187500.00, 187500.00, 187500.00, 187500.00, 187500.00, 0
189, 187500.00, -73744.46, 187500.00, 187500.00, 187500.00, 187500.00, 187500.00, 187500.00, 0
190, 187500.00, -72237.08, 187500.00, 187500.00, 187500.00, 187500.00, 187500.00, 187500.00, 0
191, 187500.00, -72733.27, 187500.00, 187500.00, 187500.00, 187500.00, 187500.00, 187500.00, 0
192, 187500.00, -74040.20, 187500.00, 187500.00, 187500.00, 187500.00, 187500.00, 187500.00, 0
193, 187500.00, -73912.61, 187500.00, 187500.00, 187500.00, 187500.00, 187500.00, 187500.00, 0
194, 187500.00, -72454.25, 187500.00, 187500.00, 187500.00, 187500.00, 187500.00, 187500.00, 0
195, 187500.00, -72460.24, 187500.00, 187500.00, 187500.00, 187500.00, 187500.00, 187500.00, 0
196, 187500.00, -73927.38, 187500.00, 187500.00, 187500.00, 187500.00, 187500.00, 187500.00, 0
197, 187500.00, -74060.02, 187500.00, 187500.00, 187500.00, 187500.00, 187500.00, 187500.00, 0
198, 187500.00, -72765.45, 187500.00, 187500.00, 187500.00, 187500.00, 187500.00, 187500.00, 0
199, 187500.00, -72261.84, 187500.00, 187500.00, 187500.00, 187500.00, 187500.00, 187500.00, 0
200, 187500.00, -73746.23, 187500.00, 187500.00, 187500.00, 187500.00, 187500.00, 187500.00, 0
201, 187500.00, -74138.05, 187500.00, 187500.00, 187500.00, 187500.00, 187500.00, 187500.00, 0
202, 187500.00, -73061.59, 187500.00, 187500.00, 187500.00, 187500.00, 187500.00, 187500.00, 0
203, 187500.00, -72114.21, 187500.00, 187500.00, 187500.00, 187500.00, 187500.00, 187500.00, 0
204, 187500.00, -73517.73, 187500.00, 187500.00, 187500.00, 187500.00, 187500.00, 187500.00, 0
205, 187500.00, -74184.50, 187500.00, 187500.00, 187500.00, 187500.00, 187500.00, 187500.00, 0
206, 187500.00, -73353.55, 187500.00, 187500.00, 187500.00, 187500.00, 187500.00, 187500.00, 0
207, 187500.00, -72092.30, 187500.00, 187500.00, 187500.00, 187500.00, 187500.00, 187500.00, 0
208, 187500.00, -73252.68, 187500.00, 187500.00, 187500.00, 187500.00, 187500.00, 187500.00, 0
209, 187500.00, -74163.78, 187500.00, 187500.00, 187500.00, 187500.00, 187500.00, 187500.00, 0
210, 187500.00, -73624.43, 187500.00, 187500.00, 187500.00, 187500.00, 187500.00, 187500.00, 0
211, 187500.00, -72176.40, 187500.00, 187500.00, 187500.00, 187500.00, 187500.00, 187500.00, 0
212, 187500.00, -72958.77, 187500.00, 187500.00, 187500.00, 187500.00, 187500.00, 187500.00, 0
213, 187500.00, -74108.91, 187500.00, 187500.00, 187500.00, 187500.00, 187500.00, 187500.00, 0
214, 187500.00, -73810.45, 187500.00, 187500.00, 187500.00, 187500.00, 187500.00, 187500.00, 0
215, 187500.00, -72328.84, 187500.00, 187500.00, 187500.00, 187500.00, 187500.00, 187500.00, 0
216, 187500.00, -72669.68, 187500.00, 187500.00, 187500.00, 187500.00, 187500.00, 187500.00, 0
217, 187500.00, -74015.41, 187500.00, 187500.00, 187500.00, 187500.00, 187500.00, 187500.00, 0
218, 187500.00, -73992.12, 187500.00, 187500.00, 187500.00, 187500.00, 187500.00, 187500.00, 0
219, 187500.00, -72600.16, 187500.00, 187500.00, 187500.00, 187500.00, 187500.00, 187500.00, 0
220, 187500.00, -72402.22, 187500.00, 187500.00, 187500.00, 187500.00, 187500.00, 187500.00, 0
221, 187500.00, -73872.31, 187500.00, 187500.00, 187500.00, 187500.00, 187500.00, 187500.00, 0
222, 187500.00, -74104.95, 187500.00, 187500.00, 187500.00, 187500.00, 187500.00, 187500.00, 0
223, 187500.00, -72877.88, 187500.00, 187500.00, 187500.00, 187500.00, 187500.00, 187500.00, 0
224, 187500.00, -72215.09, 187500.00, 187500.00, 187500.00, 187500.00, 187500.00, 187500.00, 0
225, 187500.00, -73695.64, 187500.00, 187500.00, 187500.00, 187500.00, 187500.00, 187500.00, 0
226, 187500.00, -74170.73, 187500.00, 187500.00, 187500.00, 187500.00, 187500.00, 187500.00, 0
227, 187500.00, -73187.72, 187500.00, 187500.00, 187500.00, 187500.00, 187500.00, 187500.00, 0
228, 187500.00, -72128.97, 187500.00, 187500.00, 187500.00, 187500.00, 187500.00, 187500.00, 0
229, 187500.00, -73446.51, 187500.00, 187500.00, 187500.00, 187500.00, 187500.00, 187500.00, 0
230, 187500.00, -74177.59, 187500.00, 187500.00, 187500.00, 187500.00, 187500.00, 187500.00, 0
231, 187500.00, -73450.60, 187500.00, 187500.00, 187500.00, 187500.00, 187500.00, 187500.00, 0
232, 187500.00, -72126.93, 187500.00, 187500.00, 187500.00, 187500.00, 187500.00, 187500.00, 0
233, 187500.00, -73189.53, 187500.00, 187500.00, 187500.00, 187500.00, 187500.00, 187500.00, 0
234, 187500.00, -74185.46, 187500.00, 187500.00, 187500.00, 187500.00, 187500.00, 187500.00, 0
235, 187500.00, -73725.86, 187500.00, 187500.00, 187500.00, 187500.00, 187500.00, 187500.00, 0
236, 187500.00, -72247.07, 187500.00, 187500.00, 187500.00, 187500.00, 187500.00, 187500.00, 0
237, 187500.00, -72893.75, 187500.00, 187500.00, 187500.00, 187500.00, 187500.00, 187500.00, 0
238, 187500.00, -74132.77, 187500.00, 187500.00, 187500.00, 187500.00, 187500.00, 187500.00, 0
239, 187500.00, -73927.54, 187500.00, 187500.00, 187500.00, 187500.00, 187500.00, 187500.00, 0
240, 187500.00, -72449.98, 187500.00, 187500.00, 187500.00, 187500.00, 187500.00, 187500.00, 0
241, 187500.00, -72611.45, 187500.00, 187500.00, 187500.00, 187500.00, 187500.00, 187500.00, 0
242, 187500.00, -74034.52, 187500.00, 187500.00, 187500.00, 187500.00, 187500.00, 187500.00, 0
243, 187500.00, -74087.36, 187500.00, 187500.00, 187500.00, 187500.00, 187500.00, 187500.00, 0
244, 187500.00, -72737.36, 187500.00, 187500.00, 187500.00, 187500.00, 187500.00, 187500.00, 0
245, 187500.00, -72382.03, 187500.00, 187500.00, 187500.00, 187500.00, 187500.00, 187500.00, 0
246, 187500.00, -73860.09, 187500.00, 187500.00, 187500.00, 187500.00, 187500.00, 187500.00, 0
247, 187500.00, -74148.38, 187500.00, 187500.00, 187500.00, 187500.00, 187500.00, 187500.00, 0
248, 187500.00, -73010.98, 187500.00, 187500.00, 187500.00, 187500.00, 187500.00, 187500.00, 0
249, 187500.00, -72233.82, 187500.00, 187500.00, 187500.00, 187500.00, 187500.00, 187500.00, 0
250, 187500.00, -73668.93, 187500.00, 187500.00, 187500.00, 187500.00, 187500.00, 187500.00, 0
251, 187500.00, -74235.59, 187500.00, 187500.00, 187500.00, 187500.00, 187500.00, 187500.00, 0
252, 187500.00, -73343.40, 187500.00, 187500.00, 187500.00, 187500.00, 187500.00, 187500.00, 0
253, 187500.00, -72156.10, 187500.00, 187500.00, 187500.00, 187500.00, 187500.00, 187500.00, 0
254, 187500.00, -73392.76, 187500.00, 187500.00, 187500.00, 187500.00, 187500.00, 187500.00, 0
255, 187500.00, -74232.42, 187500.00, 187500.00, 187500.00, 187500.00, 187500.00, 187500.00, 0
0, 187500.00, -73622.48, 187500.00, 187500.00, 187500.00, 187500.00, 187500.00, 187500.00, 0
1, 187500.00, -72213.92, 187500.00, 187500.00, 187500.00, 187500.00, 187500.00, 187500.00, 0
2, 187500.00, -73117.52, 187500.00, 187500.00, 187500.00, 187500.00, 187500.00, 187500.00, 0
3, 187500.00, -74207.50, 187500.00, 187500.00, 187500.00, 187500.00, 187500.00, 187500.00, 0
4, 187500.00, -73847.75, 187500.00, 187500.00, 187500.00, 187500.00, 187500.00, 187500.00, 0
5, 187500.00, -72356.39, 187500.00, 187500.00, 187500.00, 187500.00, 187500.00, 187500.00, 0
6, 187500.00, -72820.20, 187500.00, 187500.00, 187500.00, 187500.00, 187500.00, 187500.00, 0
7, 187500.00, -74136.35, 187500.00, 187500.00, 187500.00, 187500.00, 187500.00, 187500.00, 0
8, 187500.00, -74043.46, 187500.00, 187500.00, 187500.00, 187500.00, 187500.00, 187500.00, 0
9, 187500.00, -72593.19, 187500.00, 187500.00, 187500.00, 187500.00, 187500.00, 187500.00, 0
10, 187500.00, -72559.08, 187500.00, 187500.00, 187500.00, 187500.00, 187500.00, 187500.00, 0
11, 187500.00, -74003.96, 187500.00, 187500.00, 187500.00, 187500.00, 187500.00, 187500.00, 0
12, 187500.00, -74143.02, 187500.00, 187500.00, 187500.00, 187500.00, 187500.00, 187500.00, 0
13, 187500.00, -72862.75, 187500.00, 187500.00, 187500.00, 187500.00, 187500.00, 187500.00, 0
14, 187500.00, -72356.08, 187500.00, 187500.00, 187500.00, 187500.00, 187500.00, 187500.00, 0
15, 187500.00, -73849.85, 187500.00, 187500.00, 187500.00, 187500.00, 187500.00, 187500.00, 0
16, 187500.00, -74236.22, 187500.00, 187500.00, 187500.00, 187500.00, 187500.00, 187500.00, 0
17, 187500.00, -73183.99, 187500.00, 187500.00, 187500.00, 187500.00, 187500.00, 187500.00, 0
18, 187500.00, -72239.52, 187500.00, 187500.00, 187500.00, 187500.00, 187500.00, 187500.00, 0
19, 187500.00, -73618.69, 187500.00, 187500.00, 187500.00, 187500.00, 187500.00, 187500.00, 0
20, 187500.00, -74264.14, 187500.00, 187500.00, 187500.00, 187500.00, 187500.00, 187500.00, 0
21, 187500.00, -73473.24, 187500.00, 187500.00, 187500.00, 187500.00, 187500.00, 187500.00, 0
22, 187500.00, -72215.51, 187500.00, 187500.00, 187500.00, 187500.00, 187500.00, 187500.00, 0
23, 187500.00, -73346.48, 187500.00, 187500.00, 187500.00, 187500.00, 187500.00, 187500.00, 0
24, 187500.00, -74259.35, 187500.00, 187500.00, 187500.00, 187500.00, 187500.00, 187500.00, 0
25, 187500.00, -73743.21, 187500.00, 187500.00, 187500.00, 187500.00, 187500.00, 187500.00, 0
26, 187500.00, -72295.46, 187500.00, 187500.00, 187500.00, 187500.00, 187500.00, 187500.00, 0
27, 187500.00, -73059.96, 187500.00, 187500.00, 187500.00, 187500.00, 187500.00, 187500.00, 0
28, 187500.00, -74229.78, 187500.00, 187500.00, 187500.00, 187500.00, 187500.00, 187500.00, 0
29, 187500.00, -73965.18, 187500.00, 187500.00, 187500.00, 187500.00, 187500.00, 187500.00, 0
30, 187500.00, -72479.22, 187500.00, 187500.00, 187500.00, 187500.00, 187500.00, 187500.00, 0
31, 187500.00, -72781.97, 187500.00, 187500.00, 187500.00, 187500.00, 187500.00, 187500.00, 0
32, 187500.00, -74139.21, 187500.00, 187500.00, 187500.00, 187500.00, 187500.00, 187500.00, 0
33, 187500.00, -74107.01, 187500.00, 187500.00, 187500.00, 187500.00, 187500.00, 187500.00, 0
34, 187500.00, -72707.05, 187500.00, 187500.00, 187500.00, 187500.00, 187500.00, 187500.00, 0
35, 187500.00, -72512.39, 187500.00, 187500.00, 187500.00, 187500.00, 187500.00, 187500.00, 0
36, 187500.00, -73996.72, 187500.00, 187500.00, 187500.00, 187500.00, 187500.00, 187500.00, 0
37, 187500.00, -74224.44, 187500.00, 187500.00, 187500.00, 187500.00, 187500.00, 187500.00, 0
38, 187500.00, -73009.42, 187500.00, 187500.00, 187500.00, 187500.00, 187500.00, 187500.00, 0
39, 187500.00, -72320.59, 187500.00, 187500.00, 187500.00, 187500.00, 187500.00, 187500.00, 0
40, 187500.00, -73787.53, 187500.00, 187500.00, 187500.00, 187500.00, 187500.00, 187500.00, 0
41, 187500.00, -74273.03, 187500.00, 187500.00, 187500.00, 187500.00, 187500.00, 187500.00, 0
42, 187500.00, -73301.47, 187500.00, 187500.00, 187500.00, 187500.00, 187500.00, 187500.00, 0
43, 187500.00, -72226.95, 187500.00, 187500.00, 187500.00, 187500.00, 187500.00, 187500.00, 0
44, 187500.00, -73538.04, 187500.00, 187500.00, 187500.00, 187500.00, 187500.00, 187500.00, 0
45, 187500.00, -74281.33, 187500.00, 187500.00, 187500.00, 187500.00, 187500.00, 187500.00, 0
46, 187500.00, -73578.48, 187500.00, 187500.00, 187500.00, 187500.00, 187500.00, 187500.00, 0
47, 187500.00, -72226.22, 187500.00, 187500.00, 187500.00, 187500.00, 187500.00, 187500.00, 0
48, 187500.00, -73228.45, 187500.00, 187500.00, 187500.00, 187500.00, 187500.00, 187500.00, 0
49, 187500.00, -74257.66, 187500.00, 187500.00, 187500.00, 187500.00, 187500.00, 187500.00, 0
50, 187500.00, -73841.47, 187500.00, 187500.00, 187500.00, 187500.00, 187500.00, 187500.00, 0
51, 187500.00, -72357.71, 187500.00, 187500.00, 187500.00, 187500.00, 187500.00, 187500.00, 0
52, 187500.00, -72981.69, 187500.00, 187500.00, 187500.00, 187500.00, 187500.00, 187500.00, 0
53, 187500.00, -74234.32, 187500.00, 187500.00, 187500.00, 187500.00, 187500.00, 187500.00, 0
54, 187500.00, -74038.67, 187500.00, 187500.00, 187500.00, 187500.00, 187500.00, 187500.00, 0
55, 187500.00, -72561.45, 187500.00, 187500.00, 187500.00, 187500.00, 187500.00, 187500.00, 0
56, 187500.00, -72683.35, 187500.00, 187500.00, 187500.00, 187500.00, 187500.00, 187500.00, 0
57, 187500.00, -74109.76, 187500.00, 187500.00, 187500.00, 187500.00, 187500.00, 187500.00, 0
58, 187500.00, -74187.02, 187500.00, 187500.00, 187500.00, 187500.00, 187500.00, 187500.00, 0
59, 187500.00, -72840.47, 187500.00, 187500.00, 187500.00, 187500.00, 187500.00, 187500.00, 0
60, 187500.00, -72455.66, 187500.00, 187500.00, 187500.00, 187500.00, 187500.00, 187500.00, 0
61, 187500.00, -73953.56, 187500.00, 187500.00, 187500.00, 187500.00, 187500.00, 187500.00, 0
62, 187500.00, -74283.54, 187500.00, 187500.00, 187500.00, 187500.00, 187500.00, 187500.00, 0
63, 187500.00, -73145.34, 187500.00, 187500.00, 187500.00, 187500.00, 187500.00, 187500.00, 0
64, 187500.00, -72307.47, 187500.00, 187500.00, 187500.00, 187500.00, 187500.00, 187500.00, 0
65, 187500.00, -73736.81, 187500.00, 187500.00, 187500.00, 187500.00, 187500.00, 187500.00, 0
66, 187500.00, -74320.89, 187500.00, 187500.00, 187500.00, 187500.00, 187500.00, 187500.00, 0
67, 187500.00, -73433.95, 187500.00, 187500.00, 187500.00, 187500.00, 187500.00, 187500.00, 0
68, 187500.00, -72247.23, 187500.00, 187500.00, 187500.00, 187500.00, 187500.00, 187500.00, 0
69, 187500.00, -73476.71, 187500.00, 187500.00, 187500.00, 187500.00, 187500.00, 187500.00, 0
70, 187500.00, -74316.89, 187500.00, 187500.00, 187500.00, 187500.00, 187500.00, 187500.00, 0
71, 187500.00, -73707.38, 187500.00, 187500.00, 187500.00, 187500.00, 187500.00, 187500.00, 0
72, 187500.00, -72298.81, 187500.00, 187500.00, 187500.00, 187500.00, 187500.00, 187500.00, 0
73, 187500.00, -73185.17, 187500.00, 187500.00, 187500.00, 187500.00, 187500.00, 187500.00, 0
74, 187500.00, -74274.42, 187500.00, 187500.00, 187500.00, 187500.00, 187500.00, 187500.00, 0
75, 187500.00, -73921.06, 187500.00, 187500.00, 187500.00, 187500.00, 187500.00, 187500.00, 0
76, 187500.00, -72434.27, 187500.00, 187500.00, 187500.00, 187500.00, 187500.00, 187500.00, 0
77, 187500.00, -72892.75, 187500.00, 187500.00, 187500.00, 187500.00, 187500.00, 187500.00, 0
78, 187500.00, -74224.11, 187500.00, 187500.00, 187500.00, 187500.00, 187500.00, 187500.00, 0
79, 187500.00, -74137.52, 187500.00, 187500.00, 187500.00, 187500.00, 187500.00, 187500.00, 0
80, 187500.00, -72693.28, 187500.00, 187500.00, 187500.00, 187500.00, 187500.00, 187500.00, 0
81, 187500.00, -72630.70, 187500.00, 187500.00, 187500.00, 187500.00, 187500.00, 187500.00, 0
82, 187500.00, -74084.67, 187500.00, 187500.00, 187500.00, 187500.00, 187500.00, 187500.00, 0
83, 187500.00, -74245.63, 187500.00, 187500.00, 187500.00, 187500.00, 187500.00, 187500.00, 0
84, 187500.00, -72973.57, 187500.00, 187500.00, 187500.00, 187500.00, 187500.00, 187500.00, 0
85, 187500.00, -72430.91, 187500.00, 187500.00, 187500.00, 187500.00, 187500.00, 187500.00, 0
86, 187500.00, -73908.08, 187500.00, 187500.00, 187500.00, 187500.00, 187500.00, 187500.00, 0
87, 187500.00, -74304.44, 187500.00, 187500.00, 187500.00, 187500.00, 187500.00, 187500.00, 0
88, 187500.00, -73248.90, 187500.00, 187500.00, 187500.00, 187500.00, 187500.00, 187500.00, 0
89, 187500.00, -72299.87, 187500.00, 187500.00, 187500.00, 187500.00, 187500.00, 187500.00, 0
90, 187500.00, -73682.10, 187500.00, 187500.00, 187500.00, 187500.00, 187500.00, 187500.00, 0
91, 187500.00, -74356.80, 187500.00, 187500.00, 187500.00, 187500.00, 187500.00, 187500.00, 0
92, 187500.00, -73570.41, 187500.00, 187500.00, 187500.00, 187500.00, 187500.00, 187500.00, 0
93, 187500.00, -72295.17, 187500.00, 187500.00, 187500.00, 187500.00, 187500.00, 187500.00, 0
94, 187500.00, -73412.98, 187500.00, 187500.00, 187500.00, 187500.00, 187500.00, 187500.00, 0
95, 187500.00, -74339.55, 187500.00, 187500.00, 187500.00, 187500.00, 187500.00, 187500.00, 0
96, 187500.00, -73818.09, 187500.00, 187500.00, 187500.00, 187500.00, 187500.00, 187500.00, 0
97, 187500.00, -72346.88, 187500.00, 187500.00, 187500.00, 187500.00, 187500.00, 187500.00, 0
98, 187500.00, -73092.98, 187500.00, 187500.00, 187500.00, 187500.00, 187500.00, 187500.00, 0
99, 187500.00, -74296.70, 187500.00, 187500.00, 187500.00, 187500.00, 187500.00, 187500.00, 0
100, 187500.00, -74045.16, 187500.00, 187500.00, 187500.00, 187500.00, 187500.00, 187500.00, 0
101, 187500.00, -72560.60, 187500.00, 187500.00, 187500.00, 187500.00, 187500.00, 187500.00, 0
102, 187500.00, -72837.78, 187500.00, 187500.00, 187500.00, 187500.00, 187500.00, 187500.00, 0
103, 187500.00, -74192.68, 187500.00, 187500.00, 187500.00, 187500.00, 187500.00, 187500.00, 0
104, 187500.00, -74180.90, 187500.00, 187500.00, 187500.00, 187500.00, 187500.00, 187500.00, 0
105, 187500.00, -72797.88, 187500.00, 187500.00, 187500.00, 187500.00, 187500.00, 187500.00, 0
106, 187500.00, -72562.34, 187500.00, 187500.00, 187500.00, 187500.00, 187500.00, 187500.00, 0
107, 187500.00, -74038.30, 187500.00, 187500.00, 187500.00, 187500.00, 187500.00, 187500.00, 0
108, 187500.00, -74294.49, 187500.00, 187500.00, 187500.00, 187500.00, 187500.00, 187500.00, 0
109, 187500.00, -73111.57, 187500.00, 187500.00, 187500.00, 187500.00, 187500.00, 187500.00, 0
110, 187500.00, -72422.53, 187500.00, 187500.00, 187500.00, 187500.00, 187500.00, 187500.00, 0
111, 187500.00, -73867.44, 187500.00, 187500.00, 187500.00, 187500.00, 187500.00, 187500.00, 0
112, 187500.00, -74365.30, 187500.00, 187500.00, 187500.00, 187500.00, 187500.00, 187500.00, 0
113, 187500.00, -73410.15, 187500.00, 187500.00, 187500.00, 187500.00, 187500.00, 187500.00, 0
114, 187500.00, -72319.78, 187500.00, 187500.00, 187500.00, 187500.00, 187500.00, 187500.00, 0
115, 187500.00, -73611.09, 187500.00, 187500.00, 187500.00, 187500.00, 187500.00, 187500.00, 0
116, 187500.00, -74379.31, 187500.00, 187500.00, 187500.00, 187500.00, 187500.00, 187500.00, 0
117, 187500.00, -73700.05, 187500.00, 187500.00, 187500.00, 187500.00, 187500.00, 187500.00, 0
118, 187500.00, -72343.19, 187500.00, 187500.00, 187500.00, 187500.00, 187500.00, 187500.00, 0
119, 187500.00, -73333.59, 187500.00, 187500.00, 187500.00, 187500.00, 187500.00, 187500.00, 0
120, 187500.00, -74348.11, 187500.00, 187500.00, 187500.00, 187500.00, 187500.00, 187500.00, 0
121, 187500.00, -73941.29, 187500.00, 187500.00, 187500.00, 187500.00, 187500.00, 187500.00, 0
122, 187500.00, -72463.26, 187500.00, 187500.00, 187500.00, 187500.00, 187500.00, 187500.00, 0
123, 187500.00, -73049.61, 187500.00, 187500.00, 187500.00, 187500.00, 187500.00, 187500.00, 0
124, 187500.00, -74295.23, 187500.00, 187500.00, 187500.00, 187500.00, 187500.00, 187500.00, 0
125, 187500.00, -74125.84, 187500.00, 187500.00, 187500.00, 187500.00, 187500.00, 187500.00, 0
126, 187500.00, -72654.90, 187500.00, 187500.00, 187500.00, 187500.00, 187500.00, 187500.00, 0
127, 187500.00, -72750.03, 187500.00, 187500.00, 187500.00, 187500.00, 187500.00, 187500.00, 0
128, 187500.00, -74179.16, 187500.00, 187500.00, 187500.00, 187500.00, 187500.00, 187500.00, 0
129, 187500.00, -74253.74, 187500.00, 187500.00, 187500.00, 187500.00, 187500.00, 187500.00, 0
130, 187500.00, -72906.96, 187500.00, 187500.00, 187500.00, 187500.00, 187500.00, 187500.00, 0
131, 187500.00, -72508.92, 187500.00, 187500.00, 187500.00, 187500.00, 187500.00, 187500.00, 0
132, 187500.00, -74021.73, 187500.00, 187500.00, 187500.00, 187500.00, 187500.00, 187500.00, 0
133, 187500.00, -74377.20, 187500.00, 187500.00, 187500.00, 187500.00, 187500.00, 187500.00, 0
134, 187500.00, -73254.53, 187500.00, 187500.00, 187500.00, 187500.00, 187500.00, 187500.00, 0
135, 187500.00, -72397.97, 187500.00, 187500.00, 187500.00, 187500.00, 187500.00, 187500.00, 0
136, 187500.00, -73818.22, 187500.00, 187500.00, 187500.00, 187500.00, 187500.00, 187500.00, 0
137, 187500.00, -74401.84, 187500.00, 187500.00, 187500.00, 187500.00, 187500.00, 187500.00, 0
138, 187500.00, -73534.71, 187500.00, 187500.00, 187500.00, 187500.00, 187500.00, 187500.00, 0
139, 187500.00, -72337.98, 187500.00, 187500.00, 187500.00, 187500.00, 187500.00, 187500.00, 0
140, 187500.00, -73561.84, 187500.00, 187500.00, 187500.00, 187500.00, 187500.00, 187500.00, 0
141, 187500.00, -74406.38, 187500.00, 187500.00, 187500.00, 187500.00, 187500.00, 187500.00, 0
142, 187500.00, -73812.21, 187500.00, 187500.00, 187500.00, 187500.00, 187500.00, 187500.00, 0
143, 187500.00, -72406.44, 187500.00, 187500.00, 187500.00, 187500.00, 187500.00, 187500.00, 0
144, 187500.00, -73287.59, 187500.00, 187500.00, 187500.00, 187500.00, 187500.00, 187500.00, 0
145, 187500.00, -74389.46, 187500.00, 187500.00, 187500.00, 187500.00, 187500.00, 187500.00, 0
146, 187500.00, -74046.70, 187500.00, 187500.00, 187500.00, 187500.00, 187500.00, 187500.00, 0
147, 187500.00, -72549.58, 187500.00, 187500.00, 187500.00, 187500.00, 187500.00, 187500.00, 0
148, 187500.00, -72978.13, 187500.00, 187500.00, 187500.00, 187500.00, 187500.00, 187500.00, 0
149, 187500.00, -74302.83, 187500.00, 187500.00, 187500.00, 187500.00, 187500.00, 187500.00, 0
150, 187500.00, -74228.51, 187500.00, 187500.00, 187500.00, 187500.00, 187500.00, 187500.00, 0
151, 187500.00, -72799.72, 187500.00, 187500.00, 187500.00, 187500.00, 187500.00, 187500.00, 0
152, 187500.00, -72724.69, 187500.00, 187500.00, 187500.00, 187500.00, 187500.00, 187500.00, 0
153, 187500.00, -74175.85, 187500.00, 187500.00, 187500.00, 187500.00, 187500.00, 187500.00, 0
154, 187500.00, -74336.45, 187500.00, 187500.00, 187500.00, 187500.00, 187500.00, 187500.00, 0
155, 187500.00, -73075.43, 187500.00, 187500.00, 187500.00, 187500.00, 187500.00, 187500.00, 0
156, 187500.00, -72499.76, 187500.00, 187500.00, 187500.00, 187500.00, 187500.00, 187500.00, 0
157, 187500.00, -73963.40, 187500.00, 187500.00, 187500.00, 187500.00, 187500.00, 187500.00, 0
158, 187500.00, -74398.56, 187500.00, 187500.00, 187500.00, 187500.00, 187500.00, 187500.00, 0
159, 187500.00, -73377.16, 187500.00, 187500.00, 187500.00, 187500.00, 187500.00, 187500.00, 0
160, 187500.00, -72392.91, 187500.00, 187500.00, 187500.00, 187500.00, 187500.00, 187500.00, 0
161, 187500.00, -73759.63, 187500.00, 187500.00, 187500.00, 187500.00, 187500.00, 187500.00, 0
162, 187500.00, -74459.56, 187500.00, 187500.00, 187500.00, 187500.00, 187500.00, 187500.00, 0
163, 187500.00, -73686.39, 187500.00, 187500.00, 187500.00, 187500.00, 187500.00, 187500.00, 0
164, 187500.00, -72396.45, 187500.00, 187500.00, 187500.00, 187500.00, 187500.00, 187500.00, 0
165, 187500.00, -73500.22, 187500.00, 187500.00, 187500.00, 187500.00, 187500.00, 187500.00, 0
166, 187500.00, -74435.64, 187500.00, 187500.00, 187500.00, 187500.00, 187500.00, 187500.00, 0
167, 187500.00, -73925.24, 187500.00, 187500.00, 187500.00, 187500.00, 187500.00, 187500.00, 0
168, 187500.00, -72463.33, 187500.00, 187500.00, 187500.00, 187500.00, 187500.00, 187500.00, 0
169, 187500.00, -73205.47, 187500.00, 187500.00, 187500.00, 187500.00, 187500.00, 187500.00, 0
170, 187500.00, -74396.04, 187500.00, 187500.00, 187500.00, 187500.00, 187500.00, 187500.00, 0
171, 187500.00, -74146.39, 187500.00, 187500.00, 187500.00, 187500.00, 187500.00, 187500.00, 0
172, 187500.00, -72653.38, 187500.00, 187500.00, 187500.00, 187500.00, 187500.00, 187500.00, 0
173, 187500.00, -72912.30, 187500.00, 187500.00, 187500.00, 187500.00, 187500.00, 187500.00, 0
174, 187500.00, -74298.73, 187500.00, 187500.00, 187500.00, 187500.00, 187500.00, 187500.00, 0
175, 187500.00, -74303.88, 187500.00, 187500.00, 187500.00, 187500.00, 187500.00, 187500.00, 0
176, 187500.00, -72914.43, 187500.00, 187500.00, 187500.00, 187500.00, 187500.00, 187500.00, 0
177, 187500.00, -72666.21, 187500.00, 187500.00, 187500.00, 187500.00, 187500.00, 187500.00, 0
178, 187500.00, -74150.95, 187500.00, 187500.00, 187500.00, 187500.00, 187500.00, 187500.00, 0
179, 187500.00, -74397.58, 187500.00, 187500.00, 187500.00, 187500.00, 187500.00, 187500.00, 0
180, 187500.00, -73194.31, 187500.00, 187500.00, 187500.00, 187500.00, 187500.00, 187500.00, 0
181, 187500.00, -72492.31, 187500.00, 187500.00, 187500.00, 187500.00, 187500.00, 187500.00, 0
182, 187500.00, -73960.94, 187500.00, 187500.00, 187500.00, 187500.00, 187500.00, 187500.00, 0
183, 187500.00, -74459.56, 187500.00, 187500.00, 187500.00, 187500.00, 187500.00, 187500.00, 0
184, 187500.00, -73513.39, 187500.00, 187500.00, 187500.00, 187500.00, 187500.00, 187500.00, 0
185, 187500.00, -72418.27, 187500.00, 187500.00, 187500.00, 187500.00, 187500.00, 187500.00, 0
186, 187500.00, -73719.23, 187500.00, 187500.00, 187500.00, 187500.00, 187500.00, 187500.00, 0
187, 187500.00, -74499.30, 187500.00, 187500.00, 187500.00, 187500.00, 187500.00, 187500.00, 0
188, 187500.00, -73800.41, 187500.00, 187500.00, 187500.00, 187500.00, 187500.00, 187500.00, 0
189, 187500.00, -72435.34, 187500.00, 187500.00, 187500.00, 187500.00, 187500.00, 187500.00, 0
190, 187500.00, -73432.32, 187500.00, 187500.00, 187500.00, 187500.00, 187500.00, 187500.00, 0
191, 187500.00, -74451.18, 187500.00, 187500.00, 187500.00, 187500.00, 187500.00, 187500.00, 0
192, 187500.00, -74034.81, 187500.00, 187500.00, 187500.00, 187500.00, 187500.00, 187500.00, 0
193, 187500.00, -72564.53, 187500.00, 187500.00, 187500.00, 187500.00, 187500.00, 187500.00, 0
194, 187500.00, -73129.52, 187500.00, 187500.00, 187500.00, 187500.00, 187500.00, 187500.00, 0
195, 187500.00, -74372.55, 187500.00, 187500.00, 187500.00, 187500.00, 187500.00, 187500.00, 0
196, 187500.00, -74223.88, 187500.00, 187500.00, 187500.00, 187500.00, 187500.00, 187500.00, 0
197, 187500.00, -72785.80, 187500.00, 187500.00, 187500.00, 187500.00, 187500.00, 187500.00, 0
198, 187500.00, -72887.49, 187500.00, 187500.00, 187500.00, 187500.00, 187500.00, 187500.00, 0
199, 187500.00, -74310.20, 187500.00, 187500.00, 187500.00, 187500.00, 187500.00, 187500.00, 0
200, 187500.00, -74406.45, 187500.00, 187500.00, 187500.00, 187500.00, 187500.00, 187500.00, 0
201, 187500.00, -73090.90, 187500.00, 187500.00, 187500.00, 187500.00, 187500.00, 187500.00, 0
202, 187500.00, -72685.13, 187500.00, 187500.00, 187500.00, 187500.00, 187500.00, 187500.00, 0
203, 187500.00, -74168.56, 187500.00, 187500.00, 187500.00, 187500.00, 187500.00, 187500.00, 0
204, 187500.00, -74509.98, 187500.00, 187500.00, 187500.00, 187500.00, 187500.00, 187500.00, 0
205, 187500.00, -73400.80, 187500.00, 187500.00, 187500.00, 187500.00, 187500.00, 187500.00, 0
206, 187500.00, -72522.53, 187500.00, 187500.00, 187500.00, 187500.00, 187500.00, 187500.00, 0
207, 187500.00, -73938.43, 187500.00, 187500.00, 187500.00, 187500.00, 187500.00, 187500.00, 0
208, 187500.00, -74535.00, 187500.00, 187500.00, 187500.00, 187500.00, 187500.00, 187500.00, 0
209, 187500.00, -73672.15, 187500.00, 187500.00, 187500.00, 187500.00, 187500.00, 187500.00, 0
210, 187500.00, -72464.64, 187500.00, 187500.00, 187500.00, 187500.00, 187500.00, 187500.00, 0
211, 187500.00, -73667.46, 187500.00, 187500.00, 187500.00, 187500.00, 187500.00, 187500.00, 0
212, 187500.00, -74535.48, 187500.00, 187500.00, 187500.00, 187500.00, 187500.00, 187500.00, 0
213, 187500.00, -73946.66, 187500.00, 187500.00, 187500.00, 187500.00, 187500.00, 187500.00, 0
214, 187500.00, -72523.02, 187500.00, 187500.00, 187500.00, 187500.00, 187500.00, 187500.00, 0
215, 187500.00, -73368.68, 187500.00, 187500.00, 187500.00, 187500.00, 187500.00, 187500.00, 0
216, 187500.00, -74474.52, 187500.00, 187500.00, 187500.00, 187500.00, 187500.00, 187500.00, 0
217, 187500.00, -74157.97, 187500.00, 187500.00, 187500.00, 187500.00, 187500.00, 187500.00, 0
218, 187500.00, -72681.81, 187500.00, 187500.00, 187500.00, 187500.00, 187500.00, 187500.00, 0
219, 187500.00, -73089.27, 187500.00, 187500.00, 187500.00, 187500.00, 187500.00, 187500.00, 0
220, 187500.00, -74409.27, 187500.00, 187500.00, 187500.00, 187500.00, 187500.00, 187500.00, 0
221, 187500.00, -74331.59, 187500.00, 187500.00, 187500.00, 187500.00, 187500.00, 187500.00, 0
222, 187500.00, -72910.63, 187500.00, 187500.00, 187500.00, 187500.00, 187500.00, 187500.00, 0
223, 187500.00, -72817.69, 187500.00, 187500.00, 187500.00, 187500.00, 187500.00, 187500.00, 0
224, 187500.00, -74282.76, 187500.00, 187500.00, 187500.00, 187500.00, 187500.00, 187500.00, 0
225, 187500.00, -74468.70, 187500.00, 187500.00, 187500.00, 187500.00, 187500.00, 187500.00, 0
226, 187500.00, -73225.01, 187500.00, 187500.00, 187500.00, 187500.00, 187500.00, 187500.00, 0
227, 187500.00, -72646.32, 187500.00, 187500.00, 187500.00, 187500.00, 187500.00, 187500.00, 0
228, 187500.00, -74122.09, 187500.00, 187500.00, 187500.00, 187500.00, 187500.00, 187500.00, 0
229, 187500.00, -74543.58, 187500.00, 187500.00, 187500.00, 187500.00, 187500.00, 187500.00, 0
230, 187500.00, -73519.42, 187500.00, 187500.00, 187500.00, 187500.00, 187500.00, 187500.00, 0
231, 187500.00, -72540.73, 187500.00, 187500.00, 187500.00, 187500.00, 187500.00, 187500.00, 0
232, 187500.00, -73879.53, 187500.00, 187500.00, 187500.00, 187500.00, 187500.00, 187500.00, 0
233, 187500.00, -74558.66, 187500.00, 187500.00, 187500.00, 187500.00, 187500.00, 187500.00, 0
234, 187500.00, -73805.10, 187500.00, 187500.00, 187500.00, 187500.00, 187500.00, 187500.00, 0
235, 187500.00, -72549.85, 187500.00, 187500.00, 187500.00, 187500.00, 187500.00, 187500.00, 0
236, 187500.00, -73634.65, 187500.00, 187500.00, 187500.00, 187500.00, 187500.00, 187500.00, 0
237, 187500.00, -74559.31, 187500.00, 187500.00, 187500.00, 187500.00, 187500.00, 187500.00, 0
238, 187500.00, -74067.38, 187500.00, 187500.00, 187500.00, 187500.00, 187500.00, 187500.00, 0
239, 187500.00, -72635.81, 187500.00, 187500.00, 187500.00, 187500.00, 187500.00, 187500.00, 0
240, 187500.00, -73322.59, 187500.00, 187500.00, 187500.00, 187500.00, 187500.00, 187500.00, 0
241, 187500.00, -74473.62, 187500.00, 187500.00, 187500.00, 187500.00, 187500.00, 187500.00, 0
242, 187500.00, -74227.34, 187500.00, 187500.00, 187500.00, 187500.00, 187500.00, 187500.00, 0
243, 187500.00, -72793.73, 187500.00, 187500.00, 187500.00, 187500.00, 187500.00, 187500.00, 0
244, 187500.00, -73040.07, 187500.00, 187500.00, 187500.00, 187500.00, 187500.00, 187500.00, 0
245, 187500.00, -74389.71, 187500.00, 187500.00, 187500.00, 187500.00, 187500.00, 187500.00, 0
246, 187500.00, -74395.70, 187500.00, 187500.00, 187500.00, 187500.00, 187500.00, 187500.00, 0
247, 187500.00, -73049.14, 187500.00, 187500.00, 187500.00, 187500.00, 187500.00, 187500.00, 0
248, 187500.00, -72802.94, 187500.00, 187500.00, 187500.00, 187500.00, 187500.00, 187500.00, 0
249, 187500.00, -74265.03, 187500.00, 187500.00, 187500.00, 187500.00, 187500.00, 187500.00, 0
250, 187500.00, -74520.58, 187500.00, 187500.00, 187500.00, 187500.00, 187500.00, 187500.00, 0
251, 187500.00, -73357.33, 187500.00, 187500.00, 187500.00, 187500.00, 187500.00, 187500.00, 0
252, 187500.00, -72638.85, 187500.00, 187500.00, 187500.00, 187500.00, 187500.00, 187500.00, 0
253, 187500.00, -74067.04, 187500.00, 187500.00, 187500.00, 187500.00, 187500.00, 187500.00, 0
254, 187500.00, -74572.37, 187500.00, 187500.00, 187500.00, 187500.00, 187500.00, 187500.00, 0
255, 187500.00, -73644.99, 187500.00, 187500.00, 187500.00, 187500.00, 187500.00, 187500.00, 0
0, 187500.00, -72552.11, 187500.00, 187500.00, 187500.00, 187500.00, 187500.00, 187500.00, 0
1, 187500.00, -73821.59, 187500.00, 187500.00, 187500.00, 187500.00, 187500.00, 187500.00, 0
2, 187500.00, -74575.14, 187500.00, 187500.00, 187500.00, 187500.00, 187500.00, 187500.00, 0
3, 187500.00, -73897.88, 187500.00, 187500.00, 187500.00, 187500.00, 187500.00, 187500.00, 0
4, 187500.00, -72564.89, 187500.00, 187500.00, 187500.00, 187500.00, 187500.00, 187500.00, 0
5, 187500.00, -73529.77, 187500.00, 187500.00, 187500.00, 187500.00, 187500.00, 187500.00, 0
6, 187500.00, -74545.68, 187500.00, 187500.00, 187500.00, 187500.00, 187500.00, 187500.00, 0
7, 187500.00, -74156.67, 187500.00, 187500.00, 187500.00, 187500.00, 187500.00, 187500.00, 0
8, 187500.00, -72710.78, 187500.00, 187500.00, 187500.00, 187500.00, 187500.00, 187500.00, 0
9, 187500.00, -73260.88, 187500.00, 187500.00, 187500.00, 187500.00, 187500.00, 187500.00, 0
10, 187500.00, -74487.50, 187500.00, 187500.00, 187500.00, 187500.00, 187500.00, 187500.00, 0
11, 187500.00, -74331.53, 187500.00, 187500.00, 187500.00, 187500.00, 187500.00, 187500.00, 0
12, 187500.00, -72914.34, 187500.00, 187500.00, 187500.00, 187500.00, 187500.00, 187500.00, 0
13, 187500.00, -72987.98, 187500.00, 187500.00, 187500.00, 187500.00, 187500.00, 187500.00, 0
14, 187500.00, -74379.49, 187500.00, 187500.00, 187500.00, 187500.00, 187500.00, 187500.00, 0
15, 187500.00, -74466.82, 187500.00, 187500.00, 187500.00, 187500.00, 187500.00, 187500.00, 0
16, 187500.00, -73181.60, 187500.00, 187500.00, 187500.00, 187500.00, 187500.00, 187500.00, 0
17, 187500.00, -72772.47, 187500.00, 187500.00, 187500.00, 187500.00, 187500.00, 187500.00, 0
18, 187500.00, -74227.59, 187500.00, 187500.00, 187500.00, 187500.00, 187500.00, 187500.00, 0
19, 187500.00, -74570.89, 187500.00, 187500.00, 187500.00, 187500.00, 187500.00, 187500.00, 0
20, 187500.00, -73491.51, 187500.00, 187500.00, 187500.00, 187500.00, 187500.00, 187500.00, 0
21, 187500.00, -72629.87, 187500.00, 187500.00, 187500.00, 187500.00, 187500.00, 187500.00, 0
22, 187500.00, -74011.25, 187500.00, 187500.00, 187500.00, 187500.00, 187500.00, 187500.00, 0
23, 187500.00, -74610.10, 187500.00, 187500.00, 187500.00, 187500.00, 187500.00, 187500.00, 0
24, 187500.00, -73771.39, 187500.00, 187500.00, 187500.00, 187500.00, 187500.00, 187500.00, 0
25, 187500.00, -72587.47, 187500.00, 187500.00, 187500.00, 187500.00, 187500.00, 187500.00, 0
26, 187500.00, -73763.17, 187500.00, 187500.00, 187500.00, 187500.00, 187500.00, 187500.00, 0
27, 187500.00, -74617.74, 187500.00, 187500.00, 187500.00, 187500.00, 187500.00, 187500.00, 0
28, 187500.00, -74041.58, 187500.00, 187500.00, 187500.00, 187500.00, 187500.00, 187500.00, 0
29, 187500.00, -72643.19, 187500.00, 187500.00, 187500.00, 187500.00, 187500.00, 187500.00, 0
30, 187500.00, -73462.63, 187500.00, 187500.00, 187500.00, 187500.00, 187500.00, 187500.00, 0
31, 187500.00, -74554.04, 187500.00, 187500.00, 187500.00, 187500.00, 187500.00, 187500.00, 0
32, 187500.00, -74242.45, 187500.00, 187500.00, 187500.00, 187500.00, 187500.00, 187500.00, 0
33, 187500.00, -72782.98, 187500.00, 187500.00, 187500.00, 187500.00, 187500.00, 187500.00, 0
34, 187500.00, -73171.70, 187500.00, 187500.00, 187500.00, 187500.00, 187500.00, 187500.00, 0
35, 187500.00, -74489.20, 187500.00, 187500.00, 187500.00, 187500.00, 187500.00, 187500.00, 0
36, 187500.00, -74421.74, 187500.00, 187500.00, 187500.00, 187500.00, 187500.00, 187500.00, 0
37, 187500.00, -73043.24, 187500.00, 187500.00, 187500.00, 187500.00, 187500.00, 187500.00, 0
38, 187500.00, -72937.12, 187500.00, 187500.00, 187500.00, 187500.00, 187500.00, 187500.00, 0
39, 187500.00, -74368.48, 187500.00, 187500.00, 187500.00, 187500.00, 187500.00, 187500.00, 0
40, 187500.00, -74543.83, 187500.00, 187500.00, 187500.00, 187500.00, 187500.00, 187500.00, 0
41, 187500.00, -73315.98, 187500.00, 187500.00, 187500.00, 187500.00, 187500.00, 187500.00, 0
42, 187500.00, -72727.99, 187500.00, 187500.00, 187500.00, 187500.00, 187500.00, 187500.00, 0
43, 187500.00, -74169.59, 187500.00, 187500.00, 187500.00, 187500.00, 187500.00, 187500.00, 0
44, 187500.00, -74595.75, 187500.00, 187500.00, 187500.00, 187500.00, 187500.00, 187500.00, 0
45, 187500.00, -73606.82, 187500.00, 187500.00, 187500.00, 187500.00, 187500.00, 187500.00, 0
46, 187500.00, -72629.11, 187500.00, 187500.00, 187500.00, 187500.00, 187500.00, 187500.00, 0
47, 187500.00, -73966.28, 187500.00, 187500.00, 187500.00, 187500.00, 187500.00, 187500.00, 0
48, 187500.00, -74646.24, 187500.00, 187500.00, 187500.00, 187500.00, 187500.00, 187500.00, 0
49, 187500.00, -73903.76, 187500.00, 187500.00, 187500.00, 187500.00, 187500.00, 187500.00, 0
50, 187500.00, -72630.78, 187500.00, 187500.00, 187500.00, 187500.00, 187500.00, 187500.00, 0
51, 187500.00, -73689.54, 187500.00, 187500.00, 187500.00, 187500.00, 187500.00, 187500.00, 0
52, 187500.00, -74637.03, 187500.00, 187500.00, 187500.00, 187500.00, 187500.00, 187500.00, 0
53, 187500.00, -74152.89, 187500.00, 187500.00, 187500.00, 187500.00, 187500.00, 187500.00, 0
54, 187500.00, -72717.09, 187500.00, 187500.00, 187500.00, 187500.00, 187500.00, 187500.00, 0
55, 187500.00, -73396.13, 187500.00, 187500.00, 187500.00, 187500.00, 187500.00, 187500.00, 0
56, 187500.00, -74567.27, 187500.00, 187500.00, 187500.00, 187500.00, 187500.00, 187500.00, 0
57, 187500.00, -74348.18, 187500.00, 187500.00, 187500.00, 187500.00, 187500.00, 187500.00, 0
58, 187500.00, -72916.84, 187500.00, 187500.00, 187500.00, 187500.00, 187500.00, 187500.00, 0
59, 187500.00, -73124.94, 187500.00, 187500.00, 187500.00, 187500.00, 187500.00, 187500.00, 0
60, 187500.00, -74478.47, 187500.00, 187500.00, 187500.00, 187500.00, 187500.00, 187500.00, 0
61, 187500.00, -74494.96, 187500.00, 187500.00, 187500.00, 187500.00, 187500.00, 187500.00, 0
62, 187500.00, -73156.85, 187500.00, 187500.00, 187500.00, 187500.00, 187500.00, 187500.00, 0
63, 187500.00, -72884.88, 187500.00, 187500.00, 187500.00, 187500.00, 187500.00, 187500.00, 0
64, 187500.00, -74342.41, 187500.00, 187500.00, 187500.00, 187500.00, 187500.00, 187500.00, 0
65, 187500.00, -74598.88, 187500.00, 187500.00, 187500.00, 187500.00, 187500.00, 187500.00, 0
66, 187500.00, -73457.02, 187500.00, 187500.00, 187500.00, 187500.00, 187500.00, 187500.00, 0
67, 187500.00, -72721.55, 187500.00, 187500.00, 187500.00, 187500.00, 187500.00, 187500.00, 0
68, 187500.00, -74134.14, 187500.00, 187500.00, 187500.00, 187500.00, 187500.00, 187500.00, 0
69, 187500.00, -74651.25, 187500.00, 187500.00, 187500.00, 187500.00, 187500.00, 187500.00, 0
70, 187500.00, -73757.54, 187500.00, 187500.00, 187500.00, 187500.00, 187500.00, 187500.00, 0
71, 187500.00, -72654.95, 187500.00, 187500.00, 187500.00, 187500.00, 187500.00, 187500.00, 0
72, 187500.00, -73887.65, 187500.00, 187500.00, 187500.00, 187500.00, 187500.00, 187500.00, 0
73, 187500.00, -74664.59, 187500.00, 187500.00, 187500.00, 187500.00, 187500.00, 187500.00, 0
74, 187500.00, -74029.55, 187500.00, 187500.00, 187500.00, 187500.00, 187500.00, 187500.00, 0
75, 187500.00, -72699.07, 187500.00, 187500.00, 187500.00, 187500.00, 187500.00, 187500.00, 0
76, 187500.00, -73634.66, 187500.00, 187500.00, 187500.00, 187500.00, 187500.00, 187500.00, 0
77, 187500.00, -74651.65, 187500.00, 187500.00, 187500.00, 187500.00, 187500.00, 187500.00, 0
78, 187500.00, -74255.66, 187500.00, 187500.00, 187500.00, 187500.00, 187500.00, 187500.00, 0
79, 187500.00, -72802.53, 187500.00, 187500.00, 187500.00, 187500.00, 187500.00, 187500.00, 0
80, 187500.00, -73328.07, 187500.00, 187500.00, 187500.00, 187500.00, 187500.00, 187500.00, 0
81, 187500.00, -74569.98, 187500.00, 187500.00, 187500.00, 187500.00, 187500.00, 187500.00, 0
82, 187500.00, -74417.65, 187500.00, 187500.00, 187500.00, 187500.00, 187500.00, 187500.00, 0
83, 187500.00, -73006.98, 187500.00, 187500.00, 187500.00, 187500.00, 187500.00, 187500.00, 0
84, 187500.00, -73065.39, 187500.00, 187500.00, 187500.00, 187500.00, 187500.00, 187500.00, 0
85, 187500.00, -74469.39, 187500.00, 187500.00, 187500.00, 187500.00, 187500.00, 187500.00, 0
86, 187500.00, -74568.21, 187500.00, 187500.00, 187500.00, 187500.00, 187500.00, 187500.00, 0
87, 187500.00, -73286.56, 187500.00, 187500.00, 187500.00, 187500.00, 187500.00, 187500.00, 0
88, 187500.00, -72829.36, 187500.00, 187500.00, 187500.00, 187500.00, 187500.00, 187500.00, 0
89, 187500.00, -74286.58, 187500.00, 187500.00, 187500.00, 187500.00, 187500.00, 187500.00, 0
90, 187500.00, -74657.22, 187500.00, 187500.00, 187500.00, 187500.00, 187500.00, 187500.00, 0
91, 187500.00, -73597.74, 187500.00, 187500.00, 187500.00, 187500.00, 187500.00, 187500.00, 0
92, 187500.00, -72714.65, 187500.00, 187500.00, 187500.00, 187500.00, 187500.00, 187500.00, 0
93, 187500.00, -74090.46, 187500.00, 187500.00, 187500.00, 187500.00, 187500.00, 187500.00, 0
94, 187500.00, -74697.60, 187500.00, 187500.00, 187500.00, 187500.00, 187500.00, 187500.00, 0
95, 187500.00, -73875.77, 187500.00, 187500.00, 187500.00, 187500.00, 187500.00, 187500.00, 0
96, 187500.00, -72659.87, 187500.00, 187500.00, 187500.00, 187500.00, 187500.00, 187500.00, 0
97, 187500.00, -73817.35, 187500.00, 187500.00, 187500.00, 187500.00, 187500.00, 187500.00, 0
98, 187500.00, -74716.72, 187500.00, 187500.00, 187500.00, 187500.00, 187500.00, 187500.00, 0
99, 187500.00, -74174.48, 187500.00, 187500.00, 187500.00, 187500.00, 187500.00, 187500.00, 0
100, 187500.00, -72760.70, 187500.00, 187500.00, 187500.00, 187500.00, 187500.00, 187500.00, 0
101, 187500.00, -73547.72, 187500.00, 187500.00, 187500.00, 187500.00, 187500.00, 187500.00, 0
102, 187500.00, -74649.82, 187500.00, 187500.00, 187500.00, 187500.00, 187500.00, 187500.00, 0
103, 187500.00, -74360.36, 187500.00, 187500.00, 187500.00, 187500.00, 187500.00, 187500.00, 0
104, 187500.00, -72910.92, 187500.00, 187500.00, 187500.00, 187500.00, 187500.00, 187500.00, 0
105, 187500.00, -73267.34, 187500.00, 187500.00, 187500.00, 187500.00, 187500.00, 187500.00, 0
106, 187500.00, -74580.55, 187500.00, 187500.00, 187500.00, 187500.00, 187500.00, 187500.00, 0
107, 187500.00, -74534.35, 187500.00, 187500.00, 187500.00, 187500.00, 187500.00, 187500.00, 0
108, 187500.00, -73149.68, 187500.00, 187500.00, 187500.00, 187500.00, 187500.00, 187500.00, 0
109, 187500.00, -72995.68, 187500.00, 187500.00, 187500.00, 187500.00, 187500.00, 187500.00, 0
110, 187500.00, -74426.99, 187500.00, 187500.00, 187500.00, 187500.00, 187500.00, 187500.00, 0
111, 187500.00, -74630.95, 187500.00, 187500.00, 187500.00, 187500.00, 187500.00, 187500.00, 0
112, 187500.00, -73415.77, 187500.00, 187500.00, 187500.00, 187500.00, 187500.00, 187500.00, 0
113, 187500.00, -72810.18, 187500.00, 187500.00, 187500.00, 187500.00, 187500.00, 187500.00, 0
114, 187500.00, -74254.52, 187500.00, 187500.00, 187500.00, 187500.00, 187500.00, 187500.00, 0
115, 187500.00, -74708.31, 187500.00, 187500.00, 187500.00, 187500.00, 187500.00, 187500.00, 0
116, 187500.00, -73718.60, 187500.00, 187500.00, 187500.00, 187500.00, 187500.00, 187500.00, 0
117, 187500.00, -72686.64, 187500.00, 187500.00, 187500.00, 187500.00, 187500.00, 187500.00, 0
118, 187500.00, -73983.09, 187500.00, 187500.00, 187500.00, 187500.00, 187500.00, 187500.00, 0
119, 187500.00, -74724.16, 187500.00, 187500.00, 187500.00, 187500.00, 187500.00, 187500.00, 0
120, 187500.00, -74016.59, 187500.00, 187500.00, 187500.00, 187500.00, 187500.00, 187500.00, 0
121, 187500.00, -72711.77, 187500.00, 187500.00, 187500.00, 187500.00, 187500.00, 187500.00, 0
122, 187500.00, -73753.91, 187500.00, 187500.00, 187500.00, 187500.00, 187500.00, 187500.00, 0
123, 187500.00, -74709.16, 187500.00, 187500.00, 187500.00, 187500.00, 187500.00, 187500.00, 0
124, 187500.00, -74250.03, 187500.00, 187500.00, 187500.00, 187500.00, 187500.00, 187500.00, 0
125, 187500.00, -72807.36, 187500.00, 187500.00, 187500.00, 187500.00, 187500.00, 187500.00, 0
126, 187500.00, -73454.31, 187500.00, 187500.00, 187500.00, 187500.00, 187500.00, 187500.00, 0
127, 187500.00, -74655.70, 187500.00, 187500.00, 187500.00, 187500.00, 187500.00, 187500.00, 0
128, 187500.00, -74457.19, 187500.00, 187500.00, 187500.00, 187500.00, 187500.00, 187500.00, 0
129, 187500.00, -73005.47, 187500.00, 187500.00, 187500.00, 187500.00, 187500.00, 187500.00, 0
130, 187500.00, -73176.97, 187500.00, 187500.00, 187500.00, 187500.00, 187500.00, 187500.00, 0
131, 187500.00, -74556.61, 187500.00, 187500.00, 187500.00, 187500.00, 187500.00, 187500.00, 0
132, 187500.00, -74590.38, 187500.00, 187500.00, 187500.00, 187500.00, 187500.00, 187500.00, 0
133, 187500.00, -73265.08, 187500.00, 187500.00, 187500.00, 187500.00, 187500.00, 187500.00, 0
134, 187500.00, -72959.80, 187500.00, 187500.00, 187500.00, 187500.00, 187500.00, 187500.00, 0
135, 187500.00, -74414.56, 187500.00, 187500.00, 187500.00, 187500.00, 187500.00, 187500.00, 0
136, 187500.00, -74693.38, 187500.00, 187500.00, 187500.00, 187500.00, 187500.00, 187500.00, 0
137, 187500.00, -73550.96, 187500.00, 187500.00, 187500.00, 187500.00, 187500.00, 187500.00, 0
138, 187500.00, -72777.77, 187500.00, 187500.00, 187500.00, 187500.00, 187500.00, 187500.00, 0
139, 187500.00, -74193.91, 187500.00, 187500.00, 187500.00, 187500.00, 187500.00, 187500.00, 0
140, 187500.00, -74725.63, 187500.00, 187500.00, 187500.00, 187500.00, 187500.00, 187500.00, 0
141, 187500.00, -73847.55, 187500.00, 187500.00, 187500.00, 187500.00, 187500.00, 187500.00, 0
142, 187500.00, -72737.02, 187500.00, 187500.00, 187500.00, 187500.00, 187500.00, 187500.00, 0
143, 187500.00, -73960.29, 187500.00, 187500.00, 187500.00, 187500.00, 187500.00, 187500.00, 0
144, 187500.00, -74751.20, 187500.00, 187500.00, 187500.00, 187500.00, 187500.00, 187500.00, 0
145, 187500.00, -74129.76, 187500.00, 187500.00, 187500.00, 187500.00, 187500.00, 187500.00, 0
146, 187500.00, -72772.94, 187500.00, 187500.00, 187500.00, 187500.00, 187500.00, 187500.00, 0
147, 187500.00, -73692.05, 187500.00, 187500.00, 187500.00, 187500.00, 187500.00, 187500.00, 0
148, 187500.00, -74742.94, 187500.00, 187500.00, 187500.00, 187500.00, 187500.00, 187500.00, 0
149, 187500.00, -74361.88, 187500.00, 187500.00, 187500.00, 187500.00, 187500.00, 187500.00, 0
150, 187500.00, -72895.45, 187500.00, 187500.00, 187500.00, 187500.00, 187500.00, 187500.00, 0
151, 187500.00, -73396.84, 187500.00, 187500.00, 187500.00, 187500.00, 187500.00, 187500.00, 0
152, 187500.00, -74650.63, 187500.00, 187500.00, 187500.00, 187500.00, 187500.00, 187500.00, 0
153, 187500.00, -74514.01, 187500.00, 187500.00, 187500.00, 187500.00, 187500.00, 187500.00, 0
154, 187500.00, -73105.76, 187500.00, 187500.00, 187500.00, 187500.00, 187500.00, 187500.00, 0
155, 187500.00, -73123.98, 187500.00, 187500.00, 187500.00, 187500.00, 187500.00, 187500.00, 0
156, 187500.00, -74548.07, 187500.00, 187500.00, 187500.00, 187500.00, 187500.00, 187500.00, 0
157, 187500.00, -74666.60, 187500.00, 187500.00, 187500.00, 187500.00, 187500.00, 187500.00, 0
158, 187500.00, -73393.07, 187500.00, 187500.00, 187500.00, 187500.00, 187500.00, 187500.00, 0
159, 187500.00, -72921.45, 187500.00, 187500.00, 187500.00, 187500.00, 187500.00, 187500.00, 0
160, 187500.00, -74370.69, 187500.00, 187500.00, 187500.00, 187500.00, 187500.00, 187500.00, 0
161, 187500.00, -74719.47, 187500.00, 187500.00, 187500.00, 187500.00, 187500.00, 187500.00, 0
162, 187500.00, -73674.72, 187500.00, 187500.00, 187500.00, 187500.00, 187500.00, 187500.00, 0
163, 187500.00, -72814.76, 187500.00, 187500.00, 187500.00, 187500.00, 187500.00, 187500.00, 0
164, 187500.00, -74169.39, 187500.00, 187500.00, 187500.00, 187500.00, 187500.00, 187500.00, 0
165, 187500.00, -74757.73, 187500.00, 187500.00, 187500.00, 187500.00, 187500.00, 187500.00, 0
166, 187500.00, -73956.58, 187500.00, 187500.00, 187500.00, 187500.00, 187500.00, 187500.00, 0
167, 187500.00, -72749.36, 187500.00, 187500.00, 187500.00, 187500.00, 187500.00, 187500.00, 0
168, 187500.00, -73887.13, 187500.00, 187500.00, 187500.00, 187500.00, 187500.00, 187500.00, 0
169, 187500.00, -74767.45, 187500.00, 187500.00, 187500.00, 187500.00, 187500.00, 187500.00, 0
170, 187500.00, -74219.73, 187500.00, 187500.00, 187500.00, 187500.00, 187500.00, 187500.00, 0
171, 187500.00, -72830.34, 187500.00, 187500.00, 187500.00, 187500.00, 187500.00, 187500.00, 0
172, 187500.00, -73605.32, 187500.00, 187500.00, 187500.00, 187500.00, 187500.00, 187500.00, 0
173, 187500.00, -74690.59, 187500.00, 187500.00, 187500.00, 187500.00, 187500.00, 187500.00, 0
174, 187500.00, -74398.34, 187500.00, 187500.00, 187500.00, 187500.00, 187500.00, 187500.00, 0
175, 187500.00, -72994.58, 187500.00, 187500.00, 187500.00, 187500.00, 187500.00, 187500.00, 0
176, 187500.00, -73341.55, 187500.00, 187500.00, 187500.00, 187500.00, 187500.00, 187500.00, 0
177, 187500.00, -74634.06, 187500.00, 187500.00, 187500.00, 187500.00, 187500.00, 187500.00, 0
178, 187500.00, -74579.34, 187500.00, 187500.00, 187500.00, 187500.00, 187500.00, 187500.00, 0
179, 187500.00, -73242.84, 187500.00, 187500.00, 187500.00, 187500.00, 187500.00, 187500.00, 0
180, 187500.00, -73090.20, 187500.00, 187500.00, 187500.00, 187500.00, 187500.00, 187500.00, 0
181, 187500.00, -74499.28, 187500.00, 187500.00, 187500.00, 187500.00, 187500.00, 187500.00, 0
182, 187500.00, -74697.65, 187500.00, 187500.00, 187500.00, 187500.00, 187500.00, 187500.00, 0
183, 187500.00, -73524.81, 187500.00, 187500.00, 187500.00, 187500.00, 187500.00, 187500.00, 0
184, 187500.00, -72918.23, 187500.00, 187500.00, 187500.00, 187500.00, 187500.00, 187500.00, 0
185, 187500.00, -74340.00, 187500.00, 187500.00, 187500.00, 187500.00, 187500.00, 187500.00, 0
186, 187500.00, -74768.64, 187500.00, 187500.00, 187500.00, 187500.00, 187500.00, 187500.00, 0
187, 187500.00, -73811.05, 187500.00, 187500.00, 187500.00, 187500.00, 187500.00, 187500.00, 0
188, 187500.00, -72809.11, 187500.00, 187500.00, 187500.00, 187500.00, 187500.00, 187500.00, 0
189, 187500.00, -74102.29, 187500.00, 187500.00, 187500.00, 187500.00, 187500.00, 187500.00, 0
190, 187500.00, -74803.46, 187500.00, 187500.00, 187500.00, 187500.00, 187500.00, 187500.00, 0
191, 187500.00, -74097.91, 187500.00, 187500.00, 187500.00, 187500.00, 187500.00, 187500.00, 0
192, 187500.00, -72810.89, 187500.00, 187500.00, 187500.00, 187500.00, 187500.00, 187500.00, 0
193, 187500.00, -73815.25, 187500.00, 187500.00, 187500.00, 187500.00, 187500.00, 187500.00, 0
194, 187500.00, -74767.52, 187500.00, 187500.00, 187500.00, 187500.00, 187500.00, 187500.00, 0
195, 187500.00, -74318.90, 187500.00, 187500.00, 187500.00, 187500.00, 187500.00, 187500.00, 0
196, 187500.00, -72907.41, 187500.00, 187500.00, 187500.00, 187500.00, 187500.00, 187500.00, 0
197, 187500.00, -73561.76, 187500.00, 187500.00, 187500.00, 187500.00, 187500.00, 187500.00, 0
198, 187500.00, -74753.26, 187500.00, 187500.00, 187500.00, 187500.00, 187500.00, 187500.00, 0
199, 187500.00, -74544.74, 187500.00, 187500.00, 187500.00, 187500.00, 187500.00, 187500.00, 0
200, 187500.00, -73119.64, 187500.00, 187500.00, 187500.00, 187500.00, 187500.00, 187500.00, 0
201, 187500.00, -73267.85, 187500.00, 187500.00, 187500.00, 187500.00, 187500.00, 187500.00, 0
202, 187500.00, -74611.33, 187500.00, 187500.00, 187500.00, 187500.00, 187500.00, 187500.00, 0
203, 187500.00, -74660.41, 187500.00, 187500.00, 187500.00, 187500.00, 187500.00, 187500.00, 0
204, 187500.00, -73370.41, 187500.00, 187500.00, 187500.00, 187500.00, 187500.00, 187500.00, 0
205, 187500.00, -73035.26, 187500.00, 187500.00, 187500.00, 187500.00, 187500.00, 187500.00, 0
206, 187500.00, -74468.95, 187500.00, 187500.00, 187500.00, 187500.00, 187500.00, 187500.00, 0
207, 187500.00, -74765.35, 187500.00, 187500.00, 187500.00, 187500.00, 187500.00, 187500.00, 0
208, 187500.00, -73661.31, 187500.00, 187500.00, 187500.00, 187500.00, 187500.00, 187500.00, 0
209, 187500.00, -72893.55, 187500.00, 187500.00, 187500.00, 187500.00, 187500.00, 187500.00, 0
210, 187500.00, -74279.90, 187500.00, 187500.00, 187500.00, 187500.00, 187500.00, 187500.00, 0
211, 187500.00, -74817.16, 187500.00, 187500.00, 187500.00, 187500.00, 187500.00, 187500.00, 0
212, 187500.00, -73933.40, 187500.00, 187500.00, 187500.00, 187500.00, 187500.00, 187500.00, 0
213, 187500.00, -72814.36, 187500.00, 187500.00, 187500.00, 187500.00, 187500.00, 187500.00, 0
214, 187500.00, -74028.13, 187500.00, 187500.00, 187500.00, 187500.00, 187500.00, 187500.00, 0
215, 187500.00, -74813.32, 187500.00, 187500.00, 187500.00, 187500.00, 187500.00, 187500.00, 0
216, 187500.00, -74199.95, 187500.00, 187500.00, 187500.00, 187500.00, 187500.00, 187500.00, 0
217, 187500.00, -72861.01, 187500.00, 187500.00, 187500.00, 187500.00, 187500.00, 187500.00, 0
218, 187500.00, -73754.85, 187500.00, 187500.00, 187500.00, 187500.00, 187500.00, 187500.00, 0
219, 187500.00, -74790.97, 187500.00, 187500.00, 187500.00, 187500.00, 187500.00, 187500.00, 0
220, 187500.00, -74427.15, 187500.00, 187500.00, 187500.00, 187500.00, 187500.00, 187500.00, 0
221, 187500.00, -72990.09, 187500.00, 187500.00, 187500.00, 187500.00, 187500.00, 187500.00, 0
222, 187500.00, -73474.70, 187500.00, 187500.00, 187500.00, 187500.00, 187500.00, 187500.00, 0
223, 187500.00, -74718.57, 187500.00, 187500.00, 187500.00, 187500.00, 187500.00, 187500.00, 0
224, 187500.00, -74588.30, 187500.00, 187500.00, 187500.00, 187500.00, 187500.00, 187500.00, 0
225, 187500.00, -73217.02, 187500.00, 187500.00, 187500.00, 187500.00, 187500.00, 187500.00, 0
226, 187500.00, -73209.02, 187500.00, 187500.00, 187500.00, 187500.00, 187500.00, 187500.00, 0
227, 187500.00, -74610.45, 187500.00, 187500.00, 187500.00, 187500.00, 187500.00, 187500.00, 0
228, 187500.00, -74732.45, 187500.00, 187500.00, 187500.00, 187500.00, 187500.00, 187500.00, 0
229, 187500.00, -73492.89, 187500.00, 187500.00, 187500.00, 187500.00, 187500.00, 187500.00, 0
230, 187500.00, -72987.59, 187500.00, 187500.00, 187500.00, 187500.00, 187500.00, 187500.00, 0
231, 187500.00, -74424.65, 187500.00, 187500.00, 187500.00, 187500.00, 187500.00, 187500.00, 0
232, 187500.00, -74825.14, 187500.00, 187500.00, 187500.00, 187500.00, 187500.00, 187500.00, 0
233, 187500.00, -73800.77, 187500.00, 187500.00, 187500.00, 187500.00, 187500.00, 187500.00, 0
234, 187500.00, -72878.93, 187500.00, 187500.00, 187500.00, 187500.00, 187500.00, 187500.00, 0
235, 187500.00, -74214.20, 187500.00, 187500.00, 187500.00, 187500.00, 187500.00, 187500.00, 0
236, 187500.00, -74837.48, 187500.00, 187500.00, 187500.00, 187500.00, 187500.00, 187500.00, 0
237, 187500.00, -74061.25, 187500.00, 187500.00, 187500.00, 187500.00, 187500.00, 187500.00, 0
238, 187500.00, -72853.85, 187500.00, 187500.00, 187500.00, 187500.00, 187500.00, 187500.00, 0
239, 187500.00, -73963.87, 187500.00, 187500.00, 187500.00, 187500.00, 187500.00, 187500.00, 0
240, 187500.00, -74849.98, 187500.00, 187500.00, 187500.00, 187500.00, 187500.00, 187500.00, 0
241, 187500.00, -74328.29, 187500.00, 187500.00, 187500.00, 187500.00, 187500.00, 187500.00, 0
242, 187500.00, -72930.19, 187500.00, 187500.00, 187500.00, 187500.00, 187500.00, 187500.00, 0
