%OpenBCI Raw EEG Data
%Number of channels = 8
%Sample Rate = 250.0 Hz
%First Column = SampleIndex
%Last Column = Timestamp 
%Other Columns = EEG data in microvolts followed by Accel Data (in G) interleaved with Aux Data
0, 0.00, 0.00, 0.00, 0.00, 0.00, 0.00, 0.00, 0.00, -0.048, 0.964, 0.356, 14:08:28.879, 1552914508879
1, 34052.41, 52242.80, -42235.34, -14603.20, -37398.54, -26688.45, -8243.14, -44925.08, 0.000, 0.000, 0.000, 14:08:29.369, 1552914509369
2, 34079.93, 52278.16, -42201.07, -14591.35, -37407.14, -26686.15, -8229.49, -44903.31, 0.000, 0.000, 0.000, 14:08:29.369, 1552914509369
3, 34096.87, 52357.15, -42211.71, -14615.83, -37473.44, -26716.62, -8242.41, -44914.71, 0.000, 0.000, 0.000, 14:08:29.370, 1552914509370
4, 34077.16, 52374.81, -42252.71, -14647.68, -37470.93, -26740.60, -8273.52, -44940.44, 0.000, 0.000, 0.000, 14:08:29.371, 1552914509371
5, 34055.00, 52281.93, -42269.27, -14627.12, -37460.45, -26711.79, -8252.98, -44930.89, 0.000, 0.000, 0.000, 14:08:29.372, 1552914509372
6, 34051.32, 52238.62, -42267.50, -14607.04, -37352.71, -26661.56, -8238.96, -44919.16, 0.000, 0.000, 0.000, 14:08:29.373, 1552914509373
7, 34066.70, 52260.90, -42251.14, -14607.04, -37379.02, -26667.69, -8241.11, -44917.86, 0.000, 0.000, 0.000, 14:08:29.373, 1552914509373
8, 34080.96, 52331.22, -42230.98, -14636.17, -37460.72, -26711.03, -8271.98, -44933.51, -0.032, 0.952, 0.372, 14:08:29.374, 1552914509374
9, 34086.50, 52378.05, -42235.77, -14634.40, -37499.01, -26706.60, -8268.67, -44930.67, 0.000, 0.000, 0.000, 14:08:29.374, 1552914509374
10, 34049.51, 52283.14, -42259.97, -14624.28, -37457.84, -26738.92, -8246.34, -44931.72, 0.000, 0.000, 0.000, 14:08:29.374, 1552914509374
11, 34034.60, 52235.55, -42266.88, -14623.45, -37428.02, -26711.32, -8233.69, -44932.08, 0.000, 0.000, 0.000, 14:08:29.374, 1552914509374
12, 34036.54, 52248.72, -42261.27, -14630.78, -37420.55, -26726.43, -8242.56, -44921.11, 0.000, 0.000, 0.000, 14:08:29.374, 1552914509374
13, 34091.06, 52334.60, -42233.44, -14620.99, -37415.81, -26683.11, -8251.17, -44901.77, 0.000, 0.000, 0.000, 14:08:29.374, 1552914509374
14, 34105.48, 52388.75, -42238.18, -14613.10, -37382.44, -26649.11, -8243.01, -44905.14, 0.000, 0.000, 0.000, 14:08:29.374, 1552914509374
15, 34030.98, 52264.99, -42278.64, -14642.07, -37417.24, -26698.13, -8269.34, -44940.50, 0.000, 0.000, 0.000, 14:08:29.374, 1552914509374
16, 34056.14, 52230.97, -42243.75, -14609.39, -37439.55, -26692.90, -8237.51, -44919.65, 0.000, 0.000, 0.000, 14:08:29.375, 1552914509375
17, 34082.54, 52270.47, -42217.46, -14585.25, -37413.93, -26656.87, -8235.21, -44905.84, -0.024, 0.948, 0.384, 14:08:29.375, 1552914509375
18, 34082.88, 52336.99, -42230.45, -14613.68, -37436.76, -26723.01, -8256.53, -44916.75, 0.000, 0.000, 0.000, 14:08:29.375, 1552914509375
19, 34079.01, 52375.23, -42258.39, -14636.64, -37455.09, -26733.00, -8244.31, -44914.06, 0.000, 0.000, 0.000, 14:08:29.376, 1552914509376
20, 34024.18, 52263.14, -42300.88, -14638.18, -37417.94, -26697.21, -8248.96, -44927.95, 0.000, 0.000, 0.000, 14:08:29.376, 1552914509376
21, 34033.91, 52223.08, -42262.36, -14615.40, -37416.51, -26684.54, -8221.28, -44913.39, 0.000, 0.000, 0.000, 14:08:29.376, 1552914509376
22, 34054.85, 52257.32, -42223.58, -14628.46, -37461.99, -26683.98, -8227.03, -44899.87, 0.000, 0.000, 0.000, 14:08:29.377, 1552914509377
23, 34067.12, 52325.86, -42224.03, -14640.08, -37419.64, -26694.15, -8249.76, -44914.91, 0.000, 0.000, 0.000, 14:08:29.377, 1552914509377
24, 34055.77, 52355.56, -42262.61, -14635.12, -37496.08, -26727.14, -8258.99, -44931.63, 0.000, 0.000, 0.000, 14:08:29.377, 1552914509377
25, 34012.94, 52258.58, -42285.12, -14630.45, -37439.33, -26721.58, -8251.01, -44934.87, 0.000, 0.000, 0.000, 14:08:29.377, 1552914509377
26, 34032.27, 52227.26, -42267.62, -14620.99, -37374.62, -26699.38, -8234.07, -44915.45, 0.000, 0.000, 0.000, 14:08:29.378, 1552914509378
27, 34058.00, 52256.28, -42232.66, -14607.92, -37394.94, -26709.02, -8224.19, -44891.71, -0.022, 0.946, 0.390, 14:08:29.378, 1552914509378
28, 34063.45, 52333.52, -42236.75, -14630.76, -37430.72, -26743.32, -8241.18, -44910.33, 0.000, 0.000, 0.000, 14:08:29.378, 1552914509378
29, 34063.52, 52367.81, -42249.51, -14640.28, -37478.87, -26735.28, -8254.19, -44923.79, 0.000, 0.000, 0.000, 14:08:29.378, 1552914509378
30, 34044.10, 52278.43, -42254.12, -14629.01, -37442.46, -26674.39, -8246.72, -44922.20, 0.000, 0.000, 0.000, 14:08:29.378, 1552914509378
31, 34030.71, 52233.61, -42249.20, -14609.64, -37410.34, -26640.57, -8234.65, -44916.10, 0.000, 0.000, 0.000, 14:08:29.378, 1552914509378
32, 34046.04, 52257.62, -42236.39, -14614.75, -37394.07, -26672.38, -8235.25, -44893.72, 0.000, 0.000, 0.000, 14:08:29.378, 1552914509378
33, 34059.90, 52327.42, -42240.86, -14635.85, -37432.62, -26704.57, -8252.31, -44903.22, 0.000, 0.000, 0.000, 14:08:29.378, 1552914509378
34, 34075.70, 52381.69, -42227.61, -14618.51, -37457.28, -26689.70, -8244.91, -44908.52, 0.000, 0.000, 0.000, 14:08:29.378, 1552914509378
35, 34059.16, 52300.91, -42233.42, -14604.52, -37406.71, -26697.28, -8231.39, -44899.09, 0.000, 0.000, 0.000, 14:08:29.379, 1552914509379
36, 34047.81, 52248.79, -42239.10, -14591.46, -37399.56, -26675.89, -8226.78, -44900.99, 0.000, 0.000, 0.000, 14:08:29.379, 1552914509379
37, 34042.58, 52257.44, -42248.82, -14600.58, -37407.21, -26702.04, -8248.91, -44912.97, -0.018, 0.946, 0.396, 14:08:29.379, 1552914509379
38, 34053.13, 52322.08, -42253.36, -14630.60, -37451.80, -26751.93, -8264.02, -44917.06, 0.000, 0.000, 0.000, 14:08:29.379, 1552914509379
39, 34083.59, 52383.39, -42228.95, -14620.81, -37440.20, -26721.11, -8250.54, -44911.02, 0.000, 0.000, 0.000, 14:08:29.380, 1552914509380
40, 34040.83, 52286.90, -42259.50, -14618.15, -37409.75, -26697.66, -8258.25, -44916.59, 0.000, 0.000, 0.000, 14:08:29.380, 1552914509380
41, 34021.43, 52230.88, -42267.53, -14622.76, -37440.54, -26702.27, -8248.60, -44925.84, 0.000, 0.000, 0.000, 14:08:29.380, 1552914509380
42, 34046.15, 52255.32, -42247.30, -14625.28, -37472.07, -26673.79, -8233.53, -44891.93, 0.000, 0.000, 0.000, 14:08:29.380, 1552914509380
43, 34082.90, 52343.34, -42211.25, -14592.54, -37437.90, -26705.55, -8236.19, -44885.50, 0.000, 0.000, 0.000, 14:08:29.380, 1552914509380
44, 34077.31, 52382.90, -42224.16, -14615.34, -37416.57, -26702.78, -8250.12, -44890.17, 0.000, 0.000, 0.000, 14:08:29.380, 1552914509380
45, 34035.29, 52278.98, -42262.25, -14625.37, -37400.82, -26697.97, -8258.50, -44912.68, 0.000, 0.000, 0.000, 14:08:29.380, 1552914509380
46, 34028.63, 52227.66, -42263.84, -14611.92, -37436.46, -26695.67, -8239.03, -44897.43, 0.000, 0.000, 0.000, 14:08:29.380, 1552914509380
47, 34035.63, 52243.22, -42262.61, -14630.13, -37412.15, -26681.75, -8227.92, -44888.83, -0.020, 0.936, 0.396, 14:08:29.380, 1552914509380
48, 34040.72, 52309.59, -42258.27, -14665.72, -37439.77, -26727.43, -8248.44, -44892.83, 0.000, 0.000, 0.000, 14:08:29.380, 1552914509380
49, 34037.39, 52357.39, -42258.74, -14645.82, -37436.96, -26747.79, -8260.40, -44909.46, 0.000, 0.000, 0.000, 14:08:29.380, 1552914509380
50, 33989.85, 52250.80, -42297.41, -14653.09, -37471.40, -26677.68, -8268.89, -44937.89, 0.000, 0.000, 0.000, 14:08:29.380, 1552914509380
51, 34010.28, 52218.75, -42272.29, -14627.45, -37363.33, -26697.28, -8247.48, -44910.06, 0.000, 0.000, 0.000, 14:08:29.380, 1552914509380
52, 34039.43, 52250.00, -42227.72, -14604.54, -37345.38, -26664.94, -8230.90, -44873.23, 0.000, 0.000, 0.000, 14:08:29.380, 1552914509380
53, 34048.23, 52314.34, -42229.35, -14632.03, -37416.24, -26702.20, -8259.95, -44899.42, 0.000, 0.000, 0.000, 14:08:29.380, 1552914509380
54, 34047.45, 52357.91, -42256.04, -14644.91, -37404.50, -26705.51, -8272.51, -44908.77, 0.000, 0.000, 0.000, 14:08:29.380, 1552914509380
55, 34037.19, 52276.30, -42259.12, -14623.07, -37394.38, -26697.12, -8241.51, -44885.23, 0.000, 0.000, 0.000, 14:08:29.381, 1552914509381
56, 34038.89, 52235.87, -42242.96, -14613.10, -37427.14, -26697.08, -8212.59, -44864.46, 0.000, 0.000, 0.000, 14:08:29.381, 1552914509381
57, 34036.45, 52243.73, -42235.92, -14626.11, -37469.10, -26714.22, -8229.04, -44875.02, -0.024, 0.930, 0.404, 14:08:29.381, 1552914509381
58, 34029.97, 52309.25, -42238.89, -14647.79, -37423.23, -26682.53, -8271.62, -44911.09, 0.000, 0.000, 0.000, 14:08:29.381, 1552914509381
59, 34042.51, 52363.12, -42238.13, -14644.01, -37396.48, -26678.75, -8283.27, -44925.42, 0.000, 0.000, 0.000, 14:08:29.381, 1552914509381
60, 34024.34, 52272.75, -42257.80, -14640.01, -37410.14, -26686.98, -8254.10, -44905.41, 0.000, 0.000, 0.000, 14:08:29.381, 1552914509381
61, 34022.62, 52228.56, -42259.08, -14624.79, -37434.23, -26679.40, -8241.74, -44892.45, 0.000, 0.000, 0.000, 14:08:29.381, 1552914509381
62, 34027.94, 52245.46, -42263.37, -14633.84, -37500.32, -26695.89, -8239.34, -44885.70, 0.000, 0.000, 0.000, 14:08:29.381, 1552914509381
63, 34051.83, 52317.83, -42250.32, -14653.16, -37401.48, -26706.71, -8259.62, -44898.82, 0.000, 0.000, 0.000, 14:08:29.381, 1552914509381
64, 34046.71, 52363.03, -42259.82, -14670.61, -37389.19, -26714.40, -8274.15, -44909.10, 0.000, 0.000, 0.000, 14:08:29.381, 1552914509381
65, 33998.05, 52256.23, -42281.48, -14677.25, -37403.45, -26696.86, -8269.05, -44906.02, 0.000, 0.000, 0.000, 14:08:29.381, 1552914509381
66, 33975.81, 52198.38, -42282.05, -14655.61, -37420.64, -26696.90, -8254.92, -44912.12, 0.000, 0.000, 0.000, 14:08:29.381, 1552914509381
67, 34004.18, 52233.28, -42248.66, -14627.90, -37438.59, -26715.99, -8241.96, -44884.74, -0.024, 0.922, 0.406, 14:08:29.381, 1552914509381
68, 34034.17, 52314.01, -42221.19, -14632.26, -37410.96, -26710.58, -8242.34, -44876.96, 0.000, 0.000, 0.000, 14:08:29.381, 1552914509381
69, 34025.52, 52357.68, -42240.84, -14641.71, -37430.97, -26688.56, -8244.82, -44886.30, 0.000, 0.000, 0.000, 14:08:29.381, 1552914509381
70, 33990.92, 52258.29, -42268.38, -14632.81, -37358.77, -26711.43, -8262.01, -44907.11, 0.000, 0.000, 0.000, 14:08:29.382, 1552914509382
71, 33977.31, 52195.19, -42255.50, -14624.75, -37372.25, -26720.15, -8241.02, -44894.80, 0.000, 0.000, 0.000, 14:08:29.382, 1552914509382
72, 34003.28, 52224.85, -42228.66, -14627.63, -37386.33, -26695.94, -8231.45, -44874.41, 0.000, 0.000, 0.000, 14:08:29.382, 1552914509382
73, 34021.72, 52305.98, -42224.93, -14648.24, -37435.37, -26673.83, -8261.25, -44902.84, 0.000, 0.000, 0.000, 14:08:29.382, 1552914509382
74, 34017.07, 52342.26, -42254.54, -14644.01, -37479.88, -26687.71, -8273.45, -44909.64, 0.000, 0.000, 0.000, 14:08:29.382, 1552914509382
75, 33958.85, 52231.71, -42281.61, -14631.94, -37491.21, -26725.87, -8256.22, -44916.88, 0.000, 0.000, 0.000, 14:08:29.382, 1552914509382
76, 33948.41, 52182.89, -42278.68, -14624.48, -37408.28, -26732.91, -8235.90, -44901.70, 0.000, 0.000, 0.000, 14:08:29.382, 1552914509382
77, 33992.78, 52219.62, -42232.99, -14613.82, -37360.40, -26692.43, -8238.58, -44886.70, -0.032, 0.932, 0.412, 14:08:29.382, 1552914509382
78, 34035.63, 52302.05, -42214.75, -14619.09, -37359.62, -26719.27, -8255.55, -44894.89, 0.000, 0.000, 0.000, 14:08:29.382, 1552914509382
79, 34034.38, 52351.27, -42215.09, -14630.58, -37384.01, -26690.51, -8256.44, -44893.93, 0.000, 0.000, 0.000, 14:08:29.382, 1552914509382
80, 33994.95, 52262.07, -42230.80, -14634.54, -37465.43, -26697.57, -8247.77, -44894.35, 0.000, 0.000, 0.000, 14:08:29.382, 1552914509382
81, 33991.53, 52206.39, -42241.62, -14621.15, -37387.14, -26705.21, -8250.50, -44894.77, 0.000, 0.000, 0.000, 14:08:29.382, 1552914509382
82, 34019.44, 52230.97, -42220.45, -14621.50, -37348.24, -26697.24, -8255.48, -44884.67, 0.000, 0.000, 0.000, 14:08:29.382, 1552914509382
83, 34034.46, 52311.13, -42216.72, -14626.44, -37384.74, -26712.37, -8272.47, -44899.94, 0.000, 0.000, 0.000, 14:08:29.383, 1552914509383
84, 34011.11, 52343.63, -42263.82, -14655.59, -37430.14, -26753.32, -8285.17, -44925.35, 0.000, 0.000, 0.000, 14:08:29.383, 1552914509383
85, 33979.48, 52248.23, -42267.59, -14663.57, -37466.84, -26787.92, -8265.92, -44916.30, 0.000, 0.000, 0.000, 14:08:29.383, 1552914509383
86, 33996.69, 52216.11, -42249.33, -14631.09, -37411.48, -26691.16, -8230.60, -44896.96, -0.026, 0.926, 0.404, 14:08:29.383, 1552914509383
87, 34020.29, 52236.38, -42227.96, -14627.74, -37361.50, -26668.07, -8231.52, -44877.65, 0.000, 0.000, 0.000, 14:08:29.384, 1552914509384
88, 34034.24, 52303.48, -42215.98, -14658.92, -37401.39, -26685.68, -8270.64, -44902.86, 0.000, 0.000, 0.000, 14:08:29.384, 1552914509384
89, 34039.74, 52360.77, -42215.31, -14677.99, -37428.09, -26701.30, -8268.60, -44906.62, 0.000, 0.000, 0.000, 14:08:29.384, 1552914509384
90, 33993.89, 52260.07, -42255.50, -14675.46, -37451.66, -26742.25, -8260.22, -44912.25, 0.000, 0.000, 0.000, 14:08:29.384, 1552914509384
91, 33972.17, 52199.43, -42283.62, -14677.76, -37438.25, -26731.05, -8255.79, -44913.41, 0.000, 0.000, 0.000, 14:08:29.384, 1552914509384
92, 33987.32, 52220.07, -42254.27, -14684.31, -37431.13, -26725.85, -8265.72, -44918.64, 0.000, 0.000, 0.000, 14:08:29.384, 1552914509384
93, 34028.54, 52299.93, -42222.22, -14676.49, -37403.65, -26730.61, -8270.39, -44902.93, 0.000, 0.000, 0.000, 14:08:29.384, 1552914509384
94, 34025.50, 52341.59, -42248.77, -14695.44, -37405.33, -26739.41, -8282.93, -44919.94, 0.000, 0.000, 0.000, 14:08:29.384, 1552914509384
95, 34002.50, 52262.38, -42262.61, -14689.86, -37434.79, -26757.65, -8259.08, -44909.48, 0.000, 0.000, 0.000, 14:08:29.384, 1552914509384
96, 33996.09, 52207.77, -42269.25, -14681.61, -37525.16, -26718.00, -8240.51, -44903.58, -0.018, 0.926, 0.406, 14:08:29.384, 1552914509384
97, 33995.21, 52218.77, -42249.73, -14685.21, -37442.08, -26698.80, -8274.75, -44923.07, 0.000, 0.000, 0.000, 14:08:29.384, 1552914509384
98, 34028.65, 52295.88, -42248.39, -14692.72, -37442.01, -26734.90, -8276.76, -44917.98, 0.000, 0.000, 0.000, 14:08:29.384, 1552914509384
99, 34035.38, 52344.90, -42255.88, -14693.92, -37449.16, -26743.24, -8282.30, -44922.54, 0.000, 0.000, 0.000, 14:08:29.385, 1552914509385
100, 33987.79, 52241.97, -42275.33, -14699.71, -37411.05, -26780.88, -8290.57, -44931.36, 0.000, 0.000, 0.000, 14:08:29.385, 1552914509385
101, 33992.49, 52195.99, -42264.82, -14683.29, -37417.71, -26729.02, -8265.61, -44919.74, 0.000, 0.000, 0.000, 14:08:29.385, 1552914509385
102, 34008.89, 52214.25, -42255.91, -14677.29, -37449.95, -26686.02, -8262.05, -44910.55, 0.000, 0.000, 0.000, 14:08:29.385, 1552914509385
103, 34032.41, 52289.80, -42241.82, -14682.50, -37467.33, -26736.24, -8281.61, -44918.42, 0.000, 0.000, 0.000, 14:08:29.385, 1552914509385
104, 34044.14, 52345.46, -42247.07, -14697.81, -37480.21, -26735.77, -8281.83, -44922.40, 0.000, 0.000, 0.000, 14:08:29.385, 1552914509385
105, 34010.73, 52247.45, -42277.99, -14678.68, -37515.26, -26754.50, -8268.20, -44922.31, 0.000, 0.000, 0.000, 14:08:29.385, 1552914509385
106, 34004.56, 52193.85, -42269.36, -14663.28, -37444.63, -26750.39, -8268.40, -44917.71, -0.002, 0.938, 0.412, 14:08:29.385, 1552914509385
107, 34003.57, 52209.02, -42245.00, -14679.11, -37400.05, -26741.92, -8283.71, -44922.31, 0.000, 0.000, 0.000, 14:08:29.385, 1552914509385
108, 34025.07, 52288.51, -42237.73, -14695.02, -37441.72, -26753.67, -8291.13, -44924.10, 0.000, 0.000, 0.000, 14:08:29.385, 1552914509385
109, 34024.59, 52341.23, -42262.39, -14702.82, -37461.95, -26788.70, -8294.91, -44927.65, 0.000, 0.000, 0.000, 14:08:29.391, 1552914509391
110, 33992.55, 52243.16, -42289.99, -14683.20, -37475.00, -26767.42, -8284.05, -44937.27, 0.000, 0.000, 0.000, 14:08:29.392, 1552914509392
111, 33994.21, 52184.95, -42294.73, -14671.48, -37478.27, -26764.40, -8271.40, -44925.98, 0.000, 0.000, 0.000, 14:08:29.392, 1552914509392
112, 34026.20, 52222.93, -42256.17, -14665.54, -37489.84, -26759.48, -8250.45, -44897.21, 0.000, 0.000, 0.000, 14:08:29.392, 1552914509392
113, 34069.94, 52319.38, -42204.88, -14666.70, -37486.09, -26719.77, -8250.05, -44891.27, 0.000, 0.000, 0.000, 14:08:29.393, 1552914509393
114, 34054.09, 52360.32, -42236.68, -14689.32, -37455.73, -26733.47, -8288.96, -44922.98, 0.000, 0.000, 0.000, 14:08:29.393, 1552914509393
115, 34015.78, 52267.63, -42271.10, -14689.45, -37439.26, -26757.70, -8277.16, -44919.94, 0.000, 0.000, 0.000, 14:08:29.393, 1552914509393
116, 33995.62, 52191.14, -42284.29, -14689.52, -37455.13, -26772.76, -8265.76, -44916.25, 0.002, 0.940, 0.412, 14:08:29.393, 1552914509393
117, 34031.78, 52231.46, -42262.18, -14677.54, -37439.98, -26715.86, -8256.15, -44902.78, 0.000, 0.000, 0.000, 14:08:29.394, 1552914509394
118, 34059.57, 52315.17, -42244.19, -14682.39, -37492.97, -26735.39, -8271.31, -44907.04, 0.000, 0.000, 0.000, 14:08:29.394, 1552914509394
119, 34060.39, 52361.33, -42259.35, -14688.14, -37530.90, -26755.53, -8274.55, -44914.38, 0.000, 0.000, 0.000, 14:08:29.395, 1552914509395
120, 34020.79, 52262.60, -42276.25, -14688.83, -37475.80, -26735.90, -8265.61, -44912.30, 0.000, 0.000, 0.000, 14:08:29.395, 1552914509395
121, 33997.70, 52193.00, -42281.54, -14696.27, -37480.86, -26765.36, -8263.57, -44916.21, 0.000, 0.000, 0.000, 14:08:29.848, 1552914509848
122, 34006.32, 52212.69, -42276.07, -14687.91, -37441.79, -26774.97, -8270.44, -44912.72, 0.000, 0.000, 0.000, 14:08:29.848, 1552914509848
123, 34044.01, 52310.66, -42243.14, -14688.83, -37435.97, -26736.64, -8275.22, -44907.63, 0.000, 0.000, 0.000, 14:08:29.848, 1552914509848
124, 34048.14, 52366.13, -42258.48, -14698.28, -37447.78, -26722.13, -8282.51, -44923.96, 0.000, 0.000, 0.000, 14:08:29.848, 1552914509848
125, 34020.76, 52265.95, -42277.30, -14696.72, -37463.07, -26725.26, -8274.37, -44921.48, 0.000, 0.000, 0.000, 14:08:29.849, 1552914509849
126, 34020.49, 52208.84, -42281.45, -14690.97, -37503.86, -26758.99, -8255.01, -44904.61, -0.004, 0.936, 0.408, 14:08:29.849, 1552914509849
127, 34026.21, 52230.39, -42267.41, -14690.39, -37498.54, -26747.86, -8263.04, -44906.62, 0.000, 0.000, 0.000, 14:08:29.849, 1552914509849
128, 34017.92, 52289.87, -42254.94, -14719.83, -37463.63, -26723.95, -8295.56, -44933.60, 0.000, 0.000, 0.000, 14:08:29.849, 1552914509849
129, 34031.22, 52347.47, -42251.16, -14705.79, -37469.28, -26740.24, -8277.75, -44929.29, 0.000, 0.000, 0.000, 14:08:29.849, 1552914509849
130, 34019.38, 52267.96, -42265.52, -14696.52, -37461.99, -26735.19, -8258.25, -44909.10, 0.000, 0.000, 0.000, 14:08:29.850, 1552914509850
131, 33994.01, 52192.35, -42272.20, -14688.00, -37456.79, -26734.25, -8251.28, -44905.41, 0.000, 0.000, 0.000, 14:08:29.850, 1552914509850
132, 33979.34, 52193.13, -42286.62, -14715.78, -37470.20, -26758.44, -8280.58, -44930.04, 0.000, 0.000, 0.000, 14:08:29.850, 1552914509850
133, 34018.10, 52283.54, -42262.16, -14717.10, -37460.20, -26760.11, -8285.25, -44926.02, 0.000, 0.000, 0.000, 14:08:29.850, 1552914509850
134, 34049.44, 52356.46, -42244.06, -14703.38, -37474.64, -26758.66, -8269.50, -44907.83, 0.000, 0.000, 0.000, 14:08:29.851, 1552914509851
135, 33991.26, 52254.38, -42280.18, -14719.65, -37480.57, -26762.86, -8282.91, -44930.18, 0.000, 0.000, 0.000, 14:08:29.851, 1552914509851
136, 34006.61, 52205.00, -42253.00, -14688.76, -37469.99, -26745.47, -8253.40, -44907.00, -0.018, 0.942, 0.402, 14:08:29.851, 1552914509851
137, 34021.45, 52233.75, -42230.51, -14688.16, -37599.63, -26822.67, -8241.13, -44895.85, 0.000, 0.000, 0.000, 14:08:29.851, 1552914509851
138, 34023.36, 52306.75, -42226.07, -14711.52, -37472.45, -26739.66, -8281.41, -44922.94, 0.000, 0.000, 0.000, 14:08:29.851, 1552914509851
139, 34057.78, 52379.21, -42219.54, -14691.85, -37403.16, -26642.41, -8282.91, -44932.75, 0.000, 0.000, 0.000, 14:08:29.852, 1552914509852
140, 34023.85, 52278.47, -42260.49, -14683.60, -37475.87, -26714.85, -8265.92, -44932.84, 0.000, 0.000, 0.000, 14:08:29.852, 1552914509852
141, 33989.16, 52207.23, -42269.63, -14694.08, -37430.34, -26764.45, -8274.62, -44936.84, 0.000, 0.000, 0.000, 14:08:29.852, 1552914509852
142, 33996.13, 52225.05, -42250.41, -14714.42, -37437.14, -26762.08, -8283.69, -44926.78, 0.000, 0.000, 0.000, 14:08:29.852, 1552914509852
143, 34034.20, 52327.78, -42214.04, -14703.47, -37452.52, -26741.78, -8272.02, -44915.09, 0.000, 0.000, 0.000, 14:08:29.853, 1552914509853
144, 34053.51, 52402.75, -42192.43, -14653.42, -37434.25, -26724.84, -8260.40, -44907.58, 0.000, 0.000, 0.000, 14:08:29.853, 1552914509853
145, 34003.21, 52297.74, -42219.85, -14655.19, -37437.07, -26725.11, -8259.44, -44916.14, 0.000, 0.000, 0.000, 14:08:29.853, 1552914509853
146, 33971.79, 52218.77, -42243.61, -14665.22, -37433.20, -26730.14, -8251.08, -44915.80, -0.026, 0.948, 0.400, 14:08:29.853, 1552914509853
147, 33980.02, 52235.38, -42238.80, -14688.43, -37484.79, -26765.90, -8259.89, -44922.16, 0.000, 0.000, 0.000, 14:08:29.853, 1552914509853
148, 34015.78, 52328.05, -42224.54, -14705.53, -37521.29, -26783.11, -8268.00, -44924.23, 0.000, 0.000, 0.000, 14:08:29.853, 1552914509853
149, 34023.40, 52391.62, -42221.91, -14701.70, -37464.32, -26752.06, -8279.35, -44921.57, 0.000, 0.000, 0.000, 14:08:29.853, 1552914509853
150, 33989.71, 52299.57, -42244.84, -14695.96, -37421.60, -26723.21, -8281.97, -44924.52, 0.000, 0.000, 0.000, 14:08:29.853, 1552914509853
151, 33997.29, 52237.99, -42233.89, -14672.62, -37441.61, -26727.66, -8273.07, -44921.89, 0.000, 0.000, 0.000, 14:08:29.853, 1552914509853
152, 34030.06, 52278.40, -42209.68, -14652.04, -37492.93, -26706.45, -8262.86, -44904.47, 0.000, 0.000, 0.000, 14:08:29.853, 1552914509853
153, 34015.09, 52361.24, -42219.96, -14688.56, -37567.85, -26771.62, -8270.79, -44896.32, 0.000, 0.000, 0.000, 14:08:29.853, 1552914509853
154, 33980.26, 52397.65, -42247.86, -14725.91, -37477.32, -26773.50, -8303.16, -44917.75, 0.000, 0.000, 0.000, 14:08:29.853, 1552914509853
155, 33950.80, 52303.06, -42257.94, -14701.57, -37404.77, -26724.57, -8298.31, -44929.93, 0.000, 0.000, 0.000, 14:08:29.853, 1552914509853
156, 33951.65, 52239.31, -42253.65, -14679.33, -37413.49, -26743.62, -8260.78, -44895.71, -0.024, 0.952, 0.406, 14:08:29.854, 1552914509854
157, 33959.14, 52255.27, -42235.52, -14680.51, -37447.20, -26734.00, -8260.58, -44897.75, 0.000, 0.000, 0.000, 14:08:29.854, 1552914509854
158, 33953.75, 52316.16, -42238.56, -14727.27, -37486.98, -26716.99, -8302.98, -44929.51, 0.000, 0.000, 0.000, 14:08:29.854, 1552914509854
159, 33938.82, 52356.70, -42274.21, -14753.74, -37491.94, -26745.13, -8324.71, -44954.07, 0.000, 0.000, 0.000, 14:08:29.854, 1552914509854
160, 33954.33, 52310.66, -42233.91, -14670.77, -37376.16, -26689.44, -8270.46, -44888.43, 0.000, 0.000, 0.000, 14:08:29.854, 1552914509854
161, 33926.15, 52228.87, -42243.05, -14652.06, -37400.08, -26694.71, -8251.12, -44885.14, 0.000, 0.000, 0.000, 14:08:29.854, 1552914509854
162, 33925.16, 52240.07, -42234.04, -14676.98, -37443.62, -26714.27, -8258.05, -44889.07, 0.000, 0.000, 0.000, 14:08:29.855, 1552914509855
163, 33935.94, 52331.40, -42226.04, -14696.52, -37453.39, -26746.61, -8283.36, -44904.61, 0.000, 0.000, 0.000, 14:08:29.855, 1552914509855
164, 33912.58, 52383.05, -42254.79, -14714.73, -37453.95, -26786.26, -8295.78, -44916.86, 0.000, 0.000, 0.000, 14:08:29.855, 1552914509855
165, 33845.91, 52273.98, -42313.48, -14731.97, -37465.93, -26754.72, -8290.24, -44924.48, -0.014, 0.926, 0.408, 14:08:29.855, 1552914509855
166, 33812.58, 52181.82, -42321.66, -14736.48, -37502.14, -26712.28, -8288.18, -44938.00, 0.000, 0.000, 0.000, 14:08:29.855, 1552914509855
167, 33876.21, 52242.24, -42254.90, -14703.04, -37450.77, -26711.56, -8266.77, -44892.43, 0.000, 0.000, 0.000, 14:08:29.855, 1552914509855
168, 33913.77, 52342.82, -42228.70, -14691.42, -37410.89, -26706.96, -8276.05, -44886.26, 0.000, 0.000, 0.000, 14:08:29.855, 1552914509855
169, 33896.55, 52382.05, -42249.98, -14701.10, -37439.26, -26718.29, -8297.15, -44911.74, 0.000, 0.000, 0.000, 14:08:29.855, 1552914509855
170, 33855.16, 52272.35, -42288.54, -14711.54, -37453.34, -26739.97, -8274.88, -44908.83, 0.000, 0.000, 0.000, 14:08:29.856, 1552914509856
171, 33838.04, 52192.80, -42294.13, -14709.57, -37433.96, -26752.96, -8260.02, -44899.78, 0.000, 0.000, 0.000, 14:08:29.856, 1552914509856
172, 33833.52, 52212.64, -42283.29, -14717.37, -37428.13, -26744.89, -8266.66, -44906.38, 0.000, 0.000, 0.000, 14:08:29.856, 1552914509856
173, 33848.39, 52296.44, -42287.87, -14744.42, -37498.11, -26775.00, -8281.57, -44906.46, 0.000, 0.000, 0.000, 14:08:29.856, 1552914509856
174, 33867.56, 52354.78, -42287.42, -14738.61, -37525.76, -26740.55, -8271.84, -44901.14, 0.000, 0.000, 0.000, 14:08:29.856, 1552914509856
175, 33834.80, 52256.23, -42298.80, -14736.68, -37422.65, -26692.88, -8280.47, -44913.15, -0.010, 0.918, 0.412, 14:08:29.856, 1552914509856
176, 33858.60, 52203.61, -42254.99, -14679.66, -37400.68, -26692.77, -8240.55, -44874.55, 0.000, 0.000, 0.000, 14:08:29.856, 1552914509856
177, 33858.09, 52220.04, -42238.20, -14698.08, -37413.24, -26713.40, -8255.15, -44878.86, 0.000, 0.000, 0.000, 14:08:29.856, 1552914509856
178, 33867.25, 52298.97, -42250.88, -14732.91, -37471.89, -26741.87, -8289.12, -44900.34, 0.000, 0.000, 0.000, 14:08:29.856, 1552914509856
179, 33880.28, 52354.69, -42273.96, -14732.91, -37493.06, -26719.52, -8296.30, -44918.55, 0.000, 0.000, 0.000, 14:08:29.856, 1552914509856
180, 33842.98, 52251.25, -42305.05, -14733.53, -37456.11, -26743.75, -8275.80, -44917.01, 0.000, 0.000, 0.000, 14:08:29.856, 1552914509856
181, 33825.99, 52164.88, -42327.39, -14732.41, -37466.20, -26731.59, -8262.57, -44909.79, 0.000, 0.000, 0.000, 14:08:29.856, 1552914509856
182, 33869.46, 52201.13, -42277.12, -14715.96, -37423.12, -26731.59, -8253.63, -44885.88, 0.000, 0.000, 0.000, 14:08:29.856, 1552914509856
183, 33898.79, 52303.91, -42245.00, -14720.66, -37428.57, -26735.84, -8272.36, -44904.90, 0.000, 0.000, 0.000, 14:08:29.856, 1552914509856
184, 33890.23, 52348.81, -42258.23, -14734.90, -37490.98, -26749.94, -8283.20, -44919.09, 0.000, 0.000, 0.000, 14:08:29.856, 1552914509856
185, 33865.30, 52260.86, -42273.05, -14718.56, -37479.65, -26727.90, -8264.54, -44907.13, -0.012, 0.922, 0.414, 14:08:29.856, 1552914509856
186, 33850.66, 52178.43, -42269.05, -14709.62, -37458.80, -26723.05, -8252.87, -44899.71, 0.000, 0.000, 0.000, 14:08:29.857, 1552914509857
187, 33888.69, 52211.80, -42235.21, -14688.60, -37428.42, -26698.29, -8241.13, -44870.61, 0.000, 0.000, 0.000, 14:08:29.857, 1552914509857
188, 33895.73, 52290.41, -42246.45, -14714.47, -37474.57, -26728.60, -8270.41, -44893.72, 0.000, 0.000, 0.000, 14:08:29.857, 1552914509857
189, 33892.42, 52340.30, -42253.58, -14730.02, -37514.34, -26741.78, -8275.38, -44910.46, 0.000, 0.000, 0.000, 14:08:29.858, 1552914509858
190, 33863.63, 52244.94, -42289.01, -14722.74, -37529.83, -26765.68, -8255.01, -44904.92, 0.000, 0.000, 0.000, 14:08:29.858, 1552914509858
191, 33836.47, 52154.42, -42299.04, -14723.70, -37390.80, -26761.50, -8280.36, -44933.38, 0.000, 0.000, 0.000, 14:08:29.858, 1552914509858
192, 33885.67, 52202.74, -42241.75, -14704.79, -37386.93, -26682.44, -8270.57, -44905.46, 0.000, 0.000, 0.000, 14:08:29.858, 1552914509858
193, 33918.75, 52303.44, -42211.58, -14716.70, -37417.85, -26695.11, -8270.75, -44896.96, 0.000, 0.000, 0.000, 14:08:29.858, 1552914509858
194, 33906.01, 52350.06, -42243.61, -14738.09, -37454.84, -26763.40, -8282.53, -44914.09, 0.000, 0.000, 0.000, 14:08:29.859, 1552914509859
195, 33866.98, 52249.41, -42274.72, -14717.71, -37466.75, -26714.45, -8268.67, -44909.88, -0.016, 0.928, 0.414, 14:08:29.859, 1552914509859
196, 33863.23, 52171.14, -42262.25, -14696.00, -37404.57, -26697.19, -8250.39, -44896.47, 0.000, 0.000, 0.000, 14:08:29.860, 1552914509860
197, 33865.44, 52183.43, -42257.51, -14732.28, -37433.34, -26755.30, -8274.75, -44912.48, 0.000, 0.000, 0.000, 14:08:29.860, 1552914509860
198, 33896.91, 52284.95, -42246.74, -14737.55, -37458.01, -26731.32, -8283.20, -44910.11, 0.000, 0.000, 0.000, 14:08:29.861, 1552914509861
199, 33925.32, 52365.08, -42240.59, -14707.94, -37441.38, -26742.72, -8273.18, -44900.18, 0.000, 0.000, 0.000, 14:08:29.861, 1552914509861
200, 33875.05, 52252.03, -42269.18, -14709.55, -37503.90, -26707.67, -8275.49, -44910.44, 0.000, 0.000, 0.000, 14:08:29.861, 1552914509861
201, 33864.64, 52169.28, -42265.92, -14700.74, -37479.05, -26717.69, -8260.36, -44903.96, 0.000, 0.000, 0.000, 14:08:29.861, 1552914509861
202, 33889.40, 52200.78, -42240.82, -14694.44, -37462.50, -26718.80, -8250.79, -44886.28, 0.000, 0.000, 0.000, 14:08:29.861, 1552914509861
203, 33889.96, 52284.86, -42235.39, -14721.44, -37446.03, -26761.68, -8284.38, -44908.48, 0.000, 0.000, 0.000, 14:08:29.861, 1552914509861
204, 33896.46, 52343.67, -42247.75, -14725.69, -37450.05, -26742.12, -8297.35, -44932.53, 0.000, 0.000, 0.000, 14:08:29.861, 1552914509861
205, 33863.14, 52242.37, -42262.79, -14717.37, -37461.57, -26727.90, -8280.16, -44925.75, -0.026, 0.928, 0.414, 14:08:29.862, 1552914509862
206, 33854.13, 52164.14, -42258.21, -14712.52, -37474.06, -26735.50, -8258.99, -44914.80, 0.000, 0.000, 0.000, 14:08:29.862, 1552914509862
207, 33879.57, 52198.32, -42234.98, -14701.32, -37472.96, -26730.65, -8261.03, -44902.91, 0.000, 0.000, 0.000, 14:08:29.862, 1552914509862
208, 33903.17, 52291.66, -42209.46, -14695.65, -37482.62, -26726.34, -8261.36, -44886.05, 0.000, 0.000, 0.000, 14:08:29.862, 1552914509862
209, 33917.00, 52363.03, -42206.82, -14690.88, -37490.60, -26708.99, -8258.01, -44899.87, 0.000, 0.000, 0.000, 14:08:29.862, 1552914509862
210, 33872.26, 52258.62, -42246.05, -14702.53, -37442.86, -26724.84, -8263.15, -44909.70, 0.000, 0.000, 0.000, 14:08:29.862, 1552914509862
211, 33857.28, 52175.07, -42245.82, -14681.43, -37425.69, -26695.87, -8255.46, -44903.80, 0.000, 0.000, 0.000, 14:08:29.862, 1552914509862
212, 33902.97, 52216.20, -42201.43, -14663.50, -37456.36, -26699.87, -8245.71, -44887.24, 0.000, 0.000, 0.000, 14:08:29.863, 1552914509863
213, 33906.88, 52295.17, -42208.07, -14703.65, -37491.68, -26732.66, -8293.48, -44914.93, 0.000, 0.000, 0.000, 14:08:29.863, 1552914509863
214, 33911.73, 52352.99, -42228.03, -14710.89, -37522.59, -26779.09, -8296.43, -44919.76, 0.000, 0.000, 0.000, 14:08:29.863, 1552914509863
215, 33880.68, 52259.96, -42242.43, -14691.53, -37502.02, -26735.95, -8273.97, -44906.13, -0.024, 0.930, 0.414, 14:08:29.863, 1552914509863
216, 33855.54, 52172.79, -42256.02, -14678.14, -37478.93, -26735.95, -8274.59, -44915.40, 0.000, 0.000, 0.000, 14:08:29.863, 1552914509863
217, 33884.93, 52212.49, -42225.42, -14675.39, -37445.54, -26736.71, -8272.87, -44900.32, 0.000, 0.000, 0.000, 14:08:29.863, 1552914509863
218, 33883.52, 52283.54, -42234.31, -14728.21, -37474.29, -26808.48, -8295.51, -44912.90, 0.000, 0.000, 0.000, 14:08:29.863, 1552914509863
219, 33899.88, 52354.11, -42230.04, -14710.44, -37471.02, -26736.46, -8290.26, -44913.75, 0.000, 0.000, 0.000, 14:08:29.863, 1552914509863
220, 33865.86, 52261.04, -42241.55, -14698.10, -37473.05, -26712.55, -8281.66, -44902.29, 0.000, 0.000, 0.000, 14:08:29.863, 1552914509863
221, 33841.57, 52169.84, -42253.76, -14682.79, -37516.29, -26707.70, -8265.85, -44906.93, 0.000, 0.000, 0.000, 14:08:29.863, 1552914509863
222, 33876.84, 52209.05, -42221.44, -14672.44, -37493.84, -26707.47, -8254.16, -44891.40, 0.000, 0.000, 0.000, 14:08:29.863, 1552914509863
223, 33899.19, 52297.85, -42214.11, -14689.37, -37445.74, -26728.37, -8280.34, -44895.96, 0.000, 0.000, 0.000, 14:08:29.864, 1552914509864
224, 33902.34, 52359.27, -42222.93, -14691.11, -37442.05, -26746.07, -8288.25, -44907.63, 0.000, 0.000, 0.000, 14:08:29.864, 1552914509864
225, 33849.91, 52256.54, -42256.38, -14706.29, -37457.07, -26756.09, -8290.80, -44919.72, -0.016, 0.926, 0.422, 14:08:29.864, 1552914509864
226, 33833.16, 52177.04, -42263.88, -14698.73, -37486.36, -26747.19, -8278.17, -44916.66, 0.000, 0.000, 0.000, 14:08:29.864, 1552914509864
227, 33869.91, 52217.94, -42229.53, -14676.71, -37480.61, -26733.36, -8264.47, -44892.63, 0.000, 0.000, 0.000, 14:08:29.864, 1552914509864
228, 33902.97, 52312.56, -42208.79, -14685.70, -37517.20, -26727.34, -8266.61, -44888.80, 0.000, 0.000, 0.000, 14:08:29.865, 1552914509865
229, 33896.66, 52369.44, -42223.67, -14713.57, -37514.61, -26770.04, -8293.50, -44905.21, 0.000, 0.000, 0.000, 14:08:29.865, 1552914509865
230, 33862.51, 52279.03, -42241.69, -14689.03, -37494.85, -26799.09, -8280.52, -44902.46, 0.000, 0.000, 0.000, 14:08:29.865, 1552914509865
231, 33847.76, 52194.70, -42260.38, -14672.89, -37524.06, -26713.35, -8261.00, -44906.51, 0.000, 0.000, 0.000, 14:08:29.866, 1552914509866
232, 33861.62, 52219.93, -42241.46, -14669.72, -37429.07, -26710.71, -8277.32, -44912.05, 0.000, 0.000, 0.000, 14:08:29.866, 1552914509866
233, 33901.92, 52317.03, -42203.60, -14670.50, -37420.15, -26717.08, -8288.23, -44906.39, 0.000, 0.000, 0.000, 14:08:29.866, 1552914509866
234, 33921.36, 52388.89, -42197.61, -14677.85, -37469.55, -26726.96, -8280.74, -44899.64, -0.012, 0.922, 0.424, 14:08:29.866, 1552914509866
235, 33878.16, 52287.86, -42223.52, -14675.19, -37494.02, -26706.69, -8265.58, -44894.17, 0.000, 0.000, 0.000, 14:08:29.866, 1552914509866
236, 33849.41, 52196.55, -42247.63, -14688.94, -37484.05, -26725.33, -8265.36, -44902.13, 0.000, 0.000, 0.000, 14:08:29.866, 1552914509866
237, 33850.66, 52212.51, -42245.06, -14708.48, -37466.98, -26744.06, -8281.32, -44902.48, 0.000, 0.000, 0.000, 14:08:29.866, 1552914509866
238, 33884.35, 52309.63, -42237.73, -14716.54, -37468.79, -26743.39, -8287.29, -44902.33, 0.000, 0.000, 0.000, 14:08:29.866, 1552914509866
239, 33880.28, 52357.35, -42255.99, -14711.34, -37536.09, -26782.89, -8292.59, -44919.11, 0.000, 0.000, 0.000, 14:08:29.866, 1552914509866
240, 33877.22, 52284.37, -42232.32, -14675.13, -37548.02, -26711.27, -8253.00, -44890.73, 0.000, 0.000, 0.000, 14:08:29.866, 1552914509866
241, 33864.30, 52205.07, -42231.41, -14675.06, -37396.25, -26693.39, -8263.93, -44890.84, 0.000, 0.000, 0.000, 14:08:30.328, 1552914510328
242, 33878.74, 52232.36, -42217.95, -14681.23, -37417.58, -26717.02, -8276.11, -44897.07, 0.000, 0.000, 0.000, 14:08:30.328, 1552914510328
243, 33875.50, 52310.50, -42230.69, -14714.47, -37474.40, -26743.79, -8308.68, -44930.11, 0.000, 0.000, 0.000, 14:08:30.328, 1552914510328
244, 33886.11, 52368.30, -42236.59, -14701.23, -37481.01, -26746.90, -8289.48, -44919.50, -0.012, 0.928, 0.422, 14:08:30.329, 1552914510329
245, 33858.49, 52259.70, -42258.16, -14680.92, -37479.88, -26757.59, -8270.93, -44902.84, 0.000, 0.000, 0.000, 14:08:30.329, 1552914510329
246, 33862.33, 52188.89, -42229.35, -14668.58, -37447.22, -26756.71, -8258.41, -44884.25, 0.000, 0.000, 0.000, 14:08:30.329, 1552914510329
247, 33872.64, 52227.51, -42213.14, -14682.73, -37474.26, -26693.30, -8261.96, -44879.53, 0.000, 0.000, 0.000, 14:08:30.329, 1552914510329
248, 33896.02, 52359.14, -42215.54, -14704.09, -37491.16, -26750.97, -8285.32, -44905.05, 0.000, 0.000, 0.000, 14:08:30.329, 1552914510329
249, 33899.88, 52433.08, -42238.49, -14712.39, -37538.82, -26778.17, -8291.85, -44911.34, 0.000, 0.000, 0.000, 14:08:30.329, 1552914510329
250, 33853.01, 52267.07, -42261.09, -14689.48, -37548.45, -26746.72, -8263.17, -44905.35, 0.000, 0.000, 0.000, 14:08:30.329, 1552914510329
251, 33829.48, 52128.65, -42264.82, -14689.70, -37449.00, -26694.62, -8255.97, -44886.79, 0.000, 0.000, 0.000, 14:08:30.329, 1552914510329
252, 33864.34, 52198.74, -42229.04, -14692.92, -37402.65, -26708.70, -8278.73, -44894.24, 0.000, 0.000, 0.000, 14:08:30.330, 1552914510330
253, 33902.32, 52360.05, -42194.73, -14711.34, -37457.70, -26778.19, -8299.36, -44910.18, 0.000, 0.000, 0.000, 14:08:30.330, 1552914510330
254, 33904.11, 52431.00, -42215.61, -14720.50, -37503.48, -26792.41, -8289.01, -44904.47, -0.022, 0.924, 0.422, 14:08:30.330, 1552914510330
255, 33850.69, 52244.21, -42241.93, -14694.48, -37479.34, -26689.46, -8258.03, -44892.74, 0.000, 0.000, 0.000, 14:08:30.330, 1552914510330
0, 33836.50, 52104.66, -42239.52, -14660.51, -37463.38, -26672.36, -8228.84, -44878.99, 0.000, 0.000, 0.000, 14:08:30.330, 1552914510330
1, 33860.72, 52170.89, -42219.47, -14675.80, -37427.64, -26690.22, -8236.62, -44871.86, 0.000, 0.000, 0.000, 14:08:30.331, 1552914510331
2, 33892.39, 52332.61, -42214.53, -14713.19, -37469.73, -26734.63, -8268.71, -44894.06, 0.000, 0.000, 0.000, 14:08:30.331, 1552914510331
3, 33878.18, 52403.80, -42240.26, -14753.31, -37511.19, -26743.10, -8307.29, -44931.48, 0.000, 0.000, 0.000, 14:08:30.331, 1552914510331
4, 33839.49, 52229.72, -42249.09, -14728.17, -37465.52, -26702.78, -8257.00, -44891.91, 0.000, 0.000, 0.000, 14:08:30.331, 1552914510331
5, 33840.74, 52096.24, -42233.20, -14695.58, -37434.61, -26657.56, -8223.59, -44864.51, 0.000, 0.000, 0.000, 14:08:30.332, 1552914510332
6, 33869.06, 52163.02, -42214.57, -14703.07, -37456.31, -26703.49, -8233.98, -44867.91, 0.000, 0.000, 0.000, 14:08:30.332, 1552914510332
7, 33904.11, 52328.43, -42215.43, -14735.39, -37459.87, -26702.13, -8264.83, -44884.40, 0.000, 0.000, 0.000, 14:08:30.332, 1552914510332
8, 33891.68, 52409.65, -42248.13, -14756.55, -37494.20, -26740.38, -8278.84, -44904.92, -0.024, 0.914, 0.430, 14:08:30.332, 1552914510332
9, 33849.75, 52237.79, -42255.61, -14728.77, -37521.61, -26727.14, -8263.89, -44900.09, 0.000, 0.000, 0.000, 14:08:30.332, 1552914510332
10, 33853.41, 52114.81, -42239.25, -14697.72, -37481.64, -26709.46, -8227.03, -44873.94, 0.000, 0.000, 0.000, 14:08:30.332, 1552914510332
11, 33884.55, 52191.95, -42201.52, -14711.00, -37421.76, -26699.36, -8247.59, -44880.82, 0.000, 0.000, 0.000, 14:08:30.333, 1552914510333
12, 33905.49, 52348.66, -42202.39, -14744.01, -37461.79, -26706.71, -8279.38, -44896.16, 0.000, 0.000, 0.000, 14:08:30.333, 1552914510333
13, 33908.69, 52441.84, -42235.09, -14752.75, -37485.42, -26750.99, -8286.55, -44908.92, 0.000, 0.000, 0.000, 14:08:30.333, 1552914510333
14, 33860.12, 52270.60, -42278.19, -14724.90, -37457.81, -26705.55, -8255.86, -44893.77, 0.000, 0.000, 0.000, 14:08:30.333, 1552914510333
15, 33838.95, 52130.68, -42287.53, -14712.28, -37477.26, -26684.23, -8233.26, -44885.23, 0.000, 0.000, 0.000, 14:08:30.333, 1552914510333
16, 33875.09, 52198.25, -42243.05, -14719.43, -37457.32, -26716.88, -8252.02, -44875.13, 0.000, 0.000, 0.000, 14:08:30.333, 1552914510333
17, 33910.41, 52359.05, -42211.36, -14745.92, -37481.66, -26725.94, -8281.05, -44893.75, 0.000, 0.000, 0.000, 14:08:30.333, 1552914510333
18, 33895.55, 52427.71, -42227.90, -14764.96, -37478.09, -26711.03, -8286.39, -44912.45, -0.020, 0.918, 0.440, 14:08:30.333, 1552914510333
19, 33842.91, 52253.19, -42262.16, -14735.70, -37503.50, -26732.89, -8263.26, -44899.71, 0.000, 0.000, 0.000, 14:08:30.333, 1552914510333
20, 33824.69, 52120.45, -42272.64, -14724.01, -37482.45, -26730.72, -8255.53, -44891.33, 0.000, 0.000, 0.000, 14:08:30.334, 1552914510334
21, 33861.68, 52189.85, -42236.35, -14717.86, -37472.23, -26709.33, -8244.42, -44872.24, 0.000, 0.000, 0.000, 14:08:30.334, 1552914510334
22, 33903.53, 52356.52, -42229.53, -14734.29, -37503.12, -26759.64, -8254.66, -44876.24, 0.000, 0.000, 0.000, 14:08:30.334, 1552914510334
23, 33876.35, 52422.53, -42286.17, -14778.77, -37461.48, -26772.56, -8312.43, -44923.50, 0.000, 0.000, 0.000, 14:08:30.334, 1552914510334
24, 33846.60, 52253.64, -42281.88, -14730.11, -37474.64, -26711.43, -8277.77, -44915.92, 0.000, 0.000, 0.000, 14:08:30.334, 1552914510334
25, 33845.66, 52127.13, -42241.02, -14692.76, -37471.56, -26668.20, -8237.27, -44892.67, 0.000, 0.000, 0.000, 14:08:30.334, 1552914510334
26, 33874.22, 52196.08, -42209.93, -14705.30, -37466.51, -26649.85, -8240.73, -44885.27, 0.000, 0.000, 0.000, 14:08:30.334, 1552914510334
27, 33905.23, 52351.18, -42200.67, -14723.12, -37471.16, -26705.62, -8267.49, -44897.99, 0.000, 0.000, 0.000, 14:08:30.334, 1552914510334
28, 33896.71, 52432.36, -42233.69, -14743.79, -37481.35, -26737.92, -8287.16, -44911.18, -0.014, 0.910, 0.438, 14:08:30.334, 1552914510334
29, 33837.28, 52248.96, -42284.56, -14736.97, -37493.13, -26725.58, -8269.38, -44901.66, 0.000, 0.000, 0.000, 14:08:30.334, 1552914510334
30, 33832.34, 52119.46, -42276.51, -14707.83, -37474.40, -26700.99, -8236.86, -44876.11, 0.000, 0.000, 0.000, 14:08:30.334, 1552914510334
31, 33850.73, 52175.86, -42248.04, -14710.40, -37455.27, -26733.83, -8241.13, -44870.63, 0.000, 0.000, 0.000, 14:08:30.334, 1552914510334
32, 33894.30, 52340.74, -42238.85, -14729.67, -37456.07, -26733.49, -8272.38, -44890.59, 0.000, 0.000, 0.000, 14:08:30.334, 1552914510334
33, 33900.87, 52441.30, -42244.66, -14745.13, -37517.04, -26752.49, -8298.91, -44920.93, 0.000, 0.000, 0.000, 14:08:30.334, 1552914510334
34, 33838.04, 52257.84, -42280.83, -14739.59, -37553.41, -26753.67, -8284.81, -44918.42, 0.000, 0.000, 0.000, 14:08:30.334, 1552914510334
35, 33852.25, 52140.72, -42252.89, -14687.06, -37446.79, -26687.91, -8231.86, -44871.73, 0.000, 0.000, 0.000, 14:08:30.334, 1552914510334
36, 33881.42, 52200.84, -42236.14, -14694.26, -37474.57, -26689.01, -8222.38, -44857.18, 0.000, 0.000, 0.000, 14:08:30.334, 1552914510334
37, 33893.13, 52340.54, -42244.06, -14729.15, -37509.04, -26740.84, -8284.05, -44904.36, 0.000, 0.000, 0.000, 14:08:30.335, 1552914510335
38, 33898.68, 52434.46, -42233.55, -14741.35, -37503.63, -26736.02, -8307.74, -44926.82, 0.000, 0.908, 0.438, 14:08:30.335, 1552914510335
39, 33857.17, 52266.40, -42252.37, -14718.40, -37469.28, -26725.87, -8272.42, -44899.27, 0.000, 0.000, 0.000, 14:08:30.335, 1552914510335
40, 33844.03, 52127.15, -42258.86, -14697.19, -37460.88, -26701.77, -8247.44, -44884.60, 0.000, 0.000, 0.000, 14:08:30.335, 1552914510335
41, 33869.06, 52191.79, -42242.47, -14700.25, -37499.57, -26711.94, -8264.80, -44890.10, 0.000, 0.000, 0.000, 14:08:30.335, 1552914510335
42, 33891.01, 52347.25, -42239.79, -14733.73, -37517.43, -26767.89, -8297.66, -44914.44, 0.000, 0.000, 0.000, 14:08:30.335, 1552914510335
43, 33886.20, 52445.71, -42266.19, -14754.36, -37480.92, -26795.99, -8310.22, -44928.39, 0.000, 0.000, 0.000, 14:08:30.335, 1552914510335
44, 33829.52, 52261.53, -42291.96, -14737.58, -37519.55, -26743.66, -8292.45, -44923.94, 0.000, 0.000, 0.000, 14:08:30.336, 1552914510336
45, 33842.69, 52138.41, -42245.93, -14683.37, -37511.95, -26673.28, -8242.34, -44888.38, 0.000, 0.000, 0.000, 14:08:30.336, 1552914510336
46, 33887.66, 52212.29, -42204.88, -14662.14, -37470.35, -26684.38, -8238.85, -44871.15, 0.000, 0.000, 0.000, 14:08:30.336, 1552914510336
47, 33894.34, 52347.98, -42206.55, -14711.11, -37480.19, -26720.97, -8292.09, -44911.11, -0.002, 0.918, 0.436, 14:08:30.336, 1552914510336
48, 33890.61, 52437.91, -42237.22, -14732.41, -37499.23, -26762.23, -8305.62, -44920.46, 0.000, 0.000, 0.000, 14:08:30.336, 1552914510336
49, 33830.77, 52261.24, -42286.55, -14715.52, -37476.36, -26766.35, -8267.93, -44903.63, 0.000, 0.000, 0.000, 14:08:30.336, 1552914510336
50, 33825.54, 52112.96, -42276.16, -14690.77, -37486.13, -26734.47, -8239.77, -44893.19, 0.000, 0.000, 0.000, 14:08:30.336, 1552914510336
51, 33884.82, 52204.87, -42211.69, -14673.85, -37519.91, -26693.73, -8216.52, -44853.24, 0.000, 0.000, 0.000, 14:08:30.336, 1552914510336
52, 33913.92, 52367.52, -42193.81, -14705.26, -37477.82, -26705.06, -8254.19, -44872.33, 0.000, 0.000, 0.000, 14:08:30.336, 1552914510336
53, 33896.06, 52447.54, -42231.21, -14723.96, -37477.59, -26740.55, -8291.87, -44911.52, 0.000, 0.000, 0.000, 14:08:30.336, 1552914510336
54, 33849.66, 52275.39, -42248.66, -14699.40, -37465.01, -26723.21, -8262.23, -44901.10, 0.000, 0.000, 0.000, 14:08:30.336, 1552914510336
55, 33838.55, 52131.51, -42255.43, -14682.12, -37438.90, -26748.51, -8238.56, -44882.93, 0.000, 0.000, 0.000, 14:08:30.336, 1552914510336
56, 33867.90, 52194.18, -42216.57, -14678.48, -37452.05, -26680.31, -8236.35, -44872.89, 0.000, 0.000, 0.000, 14:08:30.336, 1552914510336
57, 33898.09, 52357.62, -42208.99, -14704.30, -37511.34, -26707.16, -8269.97, -44898.04, -0.002, 0.926, 0.424, 14:08:30.336, 1552914510336
58, 33896.26, 52454.49, -42221.93, -14734.81, -37510.94, -26750.50, -8302.26, -44929.82, 0.000, 0.000, 0.000, 14:08:30.336, 1552914510336
59, 33849.55, 52277.44, -42246.94, -14701.66, -37483.92, -26752.40, -8275.17, -44912.72, 0.000, 0.000, 0.000, 14:08:30.336, 1552914510336
60, 33825.56, 52125.47, -42255.34, -14686.50, -37455.29, -26749.05, -8243.86, -44894.19, 0.000, 0.000, 0.000, 14:08:30.337, 1552914510337
61, 33863.72, 52187.25, -42217.68, -14685.01, -37459.67, -26733.33, -8249.45, -44888.65, 0.000, 0.000, 0.000, 14:08:30.337, 1552914510337
62, 33910.46, 52360.05, -42190.91, -14701.50, -37493.62, -26689.70, -8272.87, -44899.42, 0.000, 0.000, 0.000, 14:08:30.337, 1552914510337
63, 33902.45, 52452.12, -42230.16, -14727.70, -37518.05, -26731.03, -8292.97, -44934.76, 0.000, 0.000, 0.000, 14:08:30.337, 1552914510337
64, 33866.60, 52281.53, -42257.22, -14692.07, -37557.25, -26731.70, -8247.21, -44909.64, 0.000, 0.000, 0.000, 14:08:30.337, 1552914510337
65, 33838.66, 52127.42, -42250.03, -14686.57, -37553.14, -26766.79, -8230.36, -44893.61, 0.000, 0.000, 0.000, 14:08:30.337, 1552914510337
66, 33876.59, 52190.83, -42199.54, -14691.89, -37416.82, -26697.84, -8246.77, -44869.16, 0.000, 0.000, 0.000, 14:08:30.337, 1552914510337
67, 33917.50, 52363.34, -42181.25, -14688.85, -37456.54, -26716.01, -8268.33, -44899.58, -0.010, 0.930, 0.422, 14:08:30.338, 1552914510338
68, 33912.40, 52461.06, -42221.71, -14723.29, -37487.74, -26732.02, -8298.58, -44933.84, 0.000, 0.000, 0.000, 14:08:30.338, 1552914510338
69, 33853.35, 52281.24, -42254.41, -14718.20, -37498.78, -26743.01, -8281.37, -44919.07, 0.000, 0.000, 0.000, 14:08:30.338, 1552914510338
70, 33850.17, 52140.20, -42252.66, -14684.92, -37462.82, -26720.57, -8241.18, -44890.73, 0.000, 0.000, 0.000, 14:08:30.338, 1552914510338
71, 33879.75, 52198.50, -42220.32, -14685.14, -37437.85, -26732.80, -8243.08, -44885.83, 0.000, 0.000, 0.000, 14:08:30.338, 1552914510338
72, 33918.68, 52357.91, -42190.35, -14715.32, -37474.73, -26686.75, -8273.59, -44897.48, 0.000, 0.000, 0.000, 14:08:30.338, 1552914510338
73, 33914.26, 52457.38, -42214.60, -14729.20, -37581.20, -26737.42, -8286.33, -44914.55, 0.000, 0.000, 0.000, 14:08:30.339, 1552914510339
74, 33845.30, 52274.00, -42259.93, -14724.03, -37468.50, -26770.93, -8279.29, -44915.88, 0.000, 0.000, 0.000, 14:08:30.339, 1552914510339
75, 33838.62, 52133.95, -42256.02, -14677.76, -37445.86, -26705.24, -8234.58, -44891.51, 0.000, 0.000, 0.000, 14:08:30.339, 1552914510339
76, 33856.25, 52177.64, -42242.54, -14695.60, -37508.17, -26715.61, -8260.31, -44905.52, 0.000, 0.000, 0.000, 14:08:30.339, 1552914510339
77, 33903.35, 52344.34, -42214.75, -14731.56, -37455.80, -26746.12, -8278.21, -44898.75, -0.014, 0.924, 0.418, 14:08:30.340, 1552914510340
78, 33901.31, 52448.19, -42224.99, -14744.01, -37457.39, -26747.04, -8285.81, -44916.79, 0.000, 0.000, 0.000, 14:08:30.340, 1552914510340
79, 33834.68, 52258.02, -42264.44, -14726.69, -37475.02, -26740.75, -8279.09, -44923.45, 0.000, 0.000, 0.000, 14:08:30.340, 1552914510340
80, 33805.85, 52101.02, -42272.89, -14721.44, -37458.06, -26752.91, -8264.02, -44903.25, 0.000, 0.000, 0.000, 14:08:30.340, 1552914510340
81, 33840.45, 52172.95, -42239.68, -14722.60, -37483.36, -26710.69, -8269.56, -44916.21, 0.000, 0.000, 0.000, 14:08:30.340, 1552914510340
82, 33903.80, 52341.57, -42204.07, -14716.92, -37459.98, -26697.46, -8273.41, -44912.01, 0.000, 0.000, 0.000, 14:08:30.340, 1552914510340
83, 33900.40, 52427.36, -42228.16, -14741.18, -37486.15, -26750.72, -8285.84, -44919.83, 0.000, 0.000, 0.000, 14:08:30.340, 1552914510340
84, 33822.23, 52234.19, -42257.29, -14728.73, -37492.23, -26758.55, -8270.99, -44916.03, 0.000, 0.000, 0.000, 14:08:30.341, 1552914510341
85, 33781.66, 52066.33, -42281.86, -14721.73, -37493.64, -26733.40, -8256.82, -44913.97, 0.000, 0.000, 0.000, 14:08:30.341, 1552914510341
86, 33793.58, 52108.46, -42253.65, -14716.66, -37471.58, -26777.12, -8268.07, -44911.40, 0.000, 0.000, 0.000, 14:08:30.341, 1552914510341
87, 33820.49, 52262.45, -42217.77, -14737.15, -37487.05, -26703.56, -8295.60, -44921.73, -0.016, 0.928, 0.416, 14:08:30.341, 1552914510341
88, 33810.19, 52351.94, -42253.18, -14760.51, -37582.58, -26740.53, -8307.25, -44940.89, 0.000, 0.000, 0.000, 14:08:30.341, 1552914510341
89, 33747.87, 52160.57, -42275.69, -14732.71, -37521.09, -26725.85, -8291.54, -44937.55, 0.000, 0.000, 0.000, 14:08:30.342, 1552914510342
90, 33743.94, 52013.63, -42248.98, -14690.30, -37438.70, -26702.33, -8240.71, -44895.45, 0.000, 0.000, 0.000, 14:08:30.342, 1552914510342
91, 33750.51, 52054.91, -42230.87, -14695.27, -37414.32, -26712.26, -8254.14, -44884.76, 0.000, 0.000, 0.000, 14:08:30.342, 1552914510342
92, 33723.21, 52169.66, -42255.77, -14753.27, -37473.95, -26755.44, -8305.95, -44935.90, 0.000, 0.000, 0.000, 14:08:30.342, 1552914510342
93, 33743.49, 52279.41, -42241.33, -14748.33, -37466.37, -26737.13, -8305.28, -44934.20, 0.000, 0.000, 0.000, 14:08:30.342, 1552914510342
94, 33693.89, 52104.17, -42268.76, -14720.86, -37466.30, -26740.71, -8284.36, -44926.09, 0.000, 0.000, 0.000, 14:08:30.342, 1552914510342
95, 33676.86, 51941.07, -42268.24, -14691.42, -37461.25, -26719.72, -8260.38, -44907.69, 0.000, 0.000, 0.000, 14:08:30.342, 1552914510342
96, 33681.73, 51981.50, -42258.81, -14725.49, -37483.88, -26744.53, -8282.35, -44918.60, 0.000, 0.000, 0.000, 14:08:30.342, 1552914510342
97, 33707.46, 52133.99, -42250.36, -14757.07, -37540.51, -26775.98, -8298.06, -44933.46, -0.014, 0.928, 0.418, 14:08:30.342, 1552914510342
98, 33714.61, 52240.56, -42273.74, -14782.91, -37583.03, -26803.96, -8303.81, -44950.52, 0.000, 0.000, 0.000, 14:08:30.342, 1552914510342
99, 33642.46, 52055.02, -42326.63, -14781.83, -37571.02, -26780.90, -8279.44, -44951.61, 0.000, 0.000, 0.000, 14:08:30.342, 1552914510342
100, 33655.63, 51928.60, -42283.73, -14720.95, -37404.14, -26755.28, -8267.24, -44919.00, 0.000, 0.000, 0.000, 14:08:30.342, 1552914510342
101, 33686.18, 51991.23, -42257.83, -14720.57, -37458.48, -26701.95, -8272.40, -44918.69, 0.000, 0.000, 0.000, 14:08:30.342, 1552914510342
102, 33716.11, 52147.64, -42244.55, -14765.65, -37495.05, -26794.71, -8299.74, -44924.50, 0.000, 0.000, 0.000, 14:08:30.342, 1552914510342
103, 33728.82, 52268.03, -42268.62, -14784.47, -37498.45, -26751.19, -8325.96, -44957.83, 0.000, 0.000, 0.000, 14:08:30.342, 1552914510342
104, 33668.05, 52081.30, -42316.37, -14764.58, -37470.29, -26745.92, -8322.81, -44974.70, 0.000, 0.000, 0.000, 14:08:30.342, 1552914510342
105, 33699.79, 51969.37, -42283.15, -14720.57, -37453.27, -26716.30, -8275.98, -44926.20, 0.000, 0.000, 0.000, 14:08:30.810, 1552914510810
106, 33752.45, 52061.10, -42235.59, -14706.69, -37462.28, -26698.98, -8265.41, -44913.68, 0.000, 0.000, 0.000, 14:08:30.810, 1552914510810
107, 33769.46, 52209.25, -42231.47, -14743.57, -37510.14, -26755.39, -8305.15, -44951.64, -0.018, 0.918, 0.420, 14:08:30.810, 1552914510810
108, 33766.36, 52310.90, -42266.77, -14781.45, -37527.44, -26782.73, -8328.89, -44975.15, 0.000, 0.000, 0.000, 14:08:30.810, 1552914510810
109, 33730.23, 52148.99, -42279.35, -14753.76, -37479.85, -26786.26, -8310.58, -44961.83, 0.000, 0.000, 0.000, 14:08:30.810, 1552914510810
110, 33728.38, 52018.05, -42271.91, -14716.14, -37481.68, -26740.44, -8285.88, -44944.59, 0.000, 0.000, 0.000, 14:08:30.810, 1552914510810
111, 33775.50, 52092.21, -42241.55, -14715.76, -37481.80, -26735.84, -8277.72, -44930.83, 0.000, 0.000, 0.000, 14:08:30.812, 1552914510812
112, 33803.64, 52239.87, -42244.04, -14766.93, -37490.89, -26793.84, -8313.31, -44956.38, 0.000, 0.000, 0.000, 14:08:30.812, 1552914510812
113, 33817.16, 52356.64, -42252.71, -14777.86, -37513.20, -26760.00, -8321.58, -44971.57, 0.000, 0.000, 0.000, 14:08:30.812, 1552914510812
114, 33761.39, 52189.22, -42291.60, -14749.02, -37522.09, -26757.59, -8283.58, -44945.24, 0.000, 0.000, 0.000, 14:08:30.812, 1552914510812
115, 33741.70, 52041.41, -42287.98, -14722.92, -37524.75, -26744.20, -8268.67, -44938.09, 0.000, 0.000, 0.000, 14:08:30.813, 1552914510813
116, 33770.55, 52104.91, -42248.04, -14737.29, -37461.95, -26766.86, -8294.67, -44951.41, 0.000, 0.000, 0.000, 14:08:30.813, 1552914510813
117, 33829.45, 52273.09, -42217.46, -14749.49, -37454.41, -26753.96, -8308.12, -44950.34, -0.020, 0.922, 0.420, 14:08:30.813, 1552914510813
118, 33846.71, 52382.50, -42226.38, -14772.40, -37479.40, -26788.88, -8322.94, -44962.48, 0.000, 0.000, 0.000, 14:08:30.813, 1552914510813
119, 33810.72, 52232.40, -42246.43, -14733.62, -37488.72, -26741.00, -8285.84, -44942.34, 0.000, 0.000, 0.000, 14:08:30.813, 1552914510813
120, 33781.51, 52075.29, -42253.87, -14708.30, -37472.61, -26721.64, -8263.98, -44942.76, 0.000, 0.000, 0.000, 14:08:30.813, 1552914510813
121, 33810.21, 52132.67, -42240.75, -14703.92, -37514.88, -26753.27, -8255.95, -44926.11, 0.000, 0.000, 0.000, 14:08:30.813, 1552914510813
122, 33830.46, 52277.33, -42220.07, -14749.49, -37493.33, -26794.96, -8309.80, -44946.41, 0.000, 0.000, 0.000, 14:08:30.813, 1552914510813
123, 33855.05, 52397.05, -42219.63, -14762.57, -37501.96, -26756.27, -8312.88, -44951.26, 0.000, 0.000, 0.000, 14:08:30.813, 1552914510813
124, 33815.13, 52238.89, -42235.95, -14724.84, -37469.61, -26751.95, -8274.44, -44925.53, 0.000, 0.000, 0.000, 14:08:30.813, 1552914510813
125, 33799.86, 52087.00, -42227.61, -14688.00, -37458.46, -26705.35, -8243.68, -44911.92, 0.000, 0.000, 0.000, 14:08:30.813, 1552914510813
126, 33831.60, 52137.25, -42209.57, -14695.20, -37479.70, -26734.50, -8256.15, -44912.18, -0.018, 0.934, 0.414, 14:08:30.813, 1552914510813
127, 33851.96, 52290.25, -42217.10, -14751.53, -37517.09, -26775.71, -8301.68, -44946.05, 0.000, 0.000, 0.000, 14:08:30.813, 1552914510813
128, 33856.25, 52401.14, -42246.83, -14777.54, -37539.15, -26838.45, -8327.68, -44969.52, 0.000, 0.000, 0.000, 14:08:30.813, 1552914510813
129, 33821.09, 52237.90, -42265.47, -14728.88, -37531.24, -26801.08, -8303.27, -44954.27, 0.000, 0.000, 0.000, 14:08:30.813, 1552914510813
130, 33809.72, 52086.67, -42257.85, -14688.81, -37465.79, -26690.15, -8276.65, -44941.11, 0.000, 0.000, 0.000, 14:08:30.813, 1552914510813
131, 33852.21, 52150.84, -42203.42, -14685.68, -37448.47, -26717.91, -8262.81, -44915.92, 0.000, 0.000, 0.000, 14:08:30.813, 1552914510813
132, 33867.16, 52302.77, -42190.70, -14728.30, -37481.77, -26777.37, -8296.36, -44941.58, 0.000, 0.000, 0.000, 14:08:30.813, 1552914510813
133, 33860.14, 52403.75, -42221.21, -14756.38, -37521.85, -26793.53, -8327.77, -44976.58, 0.000, 0.000, 0.000, 14:08:30.814, 1552914510814
134, 33834.06, 52250.69, -42243.43, -14708.65, -37508.77, -26758.14, -8286.89, -44943.90, 0.000, 0.000, 0.000, 14:08:30.814, 1552914510814
135, 33806.72, 52088.41, -42253.38, -14700.05, -37506.52, -26761.94, -8256.29, -44920.37, 0.000, 0.000, 0.000, 14:08:30.814, 1552914510814
136, 33831.96, 52141.28, -42230.63, -14712.54, -37468.70, -26756.87, -8267.71, -44922.98, -0.018, 0.936, 0.412, 14:08:30.815, 1552914510815
137, 33896.91, 52321.61, -42171.82, -14701.03, -37455.29, -26716.30, -8270.66, -44914.60, 0.000, 0.000, 0.000, 14:08:30.815, 1552914510815
138, 33898.09, 52432.21, -42197.93, -14719.47, -37513.27, -26759.04, -8296.27, -44939.43, 0.000, 0.000, 0.000, 14:08:30.816, 1552914510816
139, 33839.94, 52263.79, -42236.77, -14701.10, -37530.95, -26762.86, -8274.17, -44930.98, 0.000, 0.000, 0.000, 14:08:30.816, 1552914510816
140, 33820.60, 52110.61, -42241.82, -14685.79, -37526.97, -26759.66, -8246.61, -44912.45, 0.000, 0.000, 0.000, 14:08:30.816, 1552914510816
141, 33850.89, 52171.09, -42196.85, -14689.92, -37440.38, -26786.78, -8255.01, -44904.21, 0.000, 0.000, 0.000, 14:08:30.816, 1552914510816
142, 33875.48, 52312.91, -42196.56, -14730.96, -37489.93, -26789.59, -8290.02, -44922.45, 0.000, 0.000, 0.000, 14:08:30.816, 1552914510816
143, 33855.58, 52405.38, -42247.12, -14761.49, -37541.74, -26802.91, -8331.99, -44973.90, 0.000, 0.000, 0.000, 14:08:30.817, 1552914510817
144, 33825.27, 52261.15, -42255.52, -14717.04, -37452.49, -26721.87, -8287.42, -44937.98, 0.000, 0.000, 0.000, 14:08:30.817, 1552914510817
145, 33839.58, 52126.08, -42211.22, -14670.90, -37434.61, -26699.05, -8229.84, -44880.29, 0.000, 0.000, 0.000, 14:08:30.817, 1552914510817
146, 33869.60, 52183.30, -42180.73, -14656.08, -37475.71, -26725.80, -8217.89, -44888.47, -0.016, 0.930, 0.404, 14:08:30.817, 1552914510817
147, 33880.28, 52326.17, -42189.43, -14707.18, -37533.41, -26787.71, -8273.45, -44924.03, 0.000, 0.000, 0.000, 14:08:30.817, 1552914510817
148, 33901.38, 52443.16, -42189.39, -14719.34, -37487.14, -26764.80, -8295.20, -44921.30, 0.000, 0.000, 0.000, 14:08:30.817, 1552914510817
149, 33857.97, 52282.02, -42216.97, -14692.85, -37476.39, -26740.75, -8251.77, -44898.46, 0.000, 0.000, 0.000, 14:08:30.817, 1552914510817
150, 33798.81, 52101.54, -42249.47, -14682.28, -37454.10, -26749.92, -8247.37, -44903.60, 0.000, 0.000, 0.000, 14:08:30.817, 1552914510817
151, 33842.93, 52164.68, -42198.62, -14682.75, -37460.83, -26733.96, -8245.58, -44896.67, 0.000, 0.000, 0.000, 14:08:30.818, 1552914510818
152, 33891.84, 52338.26, -42182.77, -14701.64, -37486.40, -26775.31, -8274.10, -44907.20, 0.000, 0.000, 0.000, 14:08:30.818, 1552914510818
153, 33891.95, 52444.03, -42197.45, -14722.47, -37496.55, -26808.66, -8300.70, -44926.87, 0.000, 0.000, 0.000, 14:08:30.818, 1552914510818
154, 33851.43, 52285.22, -42232.99, -14693.90, -37489.89, -26742.12, -8257.67, -44915.74, 0.000, 0.000, 0.000, 14:08:30.818, 1552914510818
155, 33804.29, 52111.88, -42244.06, -14695.69, -37526.21, -26718.34, -8234.83, -44909.84, 0.000, 0.000, 0.000, 14:08:30.818, 1552914510818
156, 33825.92, 52152.81, -42220.07, -14703.54, -37455.87, -26731.57, -8256.33, -44911.87, -0.016, 0.934, 0.402, 14:08:30.818, 1552914510818
157, 33875.41, 52323.04, -42185.77, -14708.39, -37450.46, -26776.63, -8270.57, -44911.16, 0.000, 0.000, 0.000, 14:08:30.818, 1552914510818
158, 33883.19, 52443.54, -42194.46, -14720.01, -37512.11, -26784.59, -8282.97, -44915.63, 0.000, 0.000, 0.000, 14:08:30.819, 1552914510819
159, 33814.03, 52266.69, -42241.69, -14715.81, -37539.78, -26775.29, -8278.64, -44925.53, 0.000, 0.000, 0.000, 14:08:30.819, 1552914510819
160, 33818.21, 52125.25, -42206.69, -14653.04, -37420.64, -26699.29, -8236.66, -44905.50, 0.000, 0.000, 0.000, 14:08:30.819, 1552914510819
161, 33835.18, 52160.90, -42187.44, -14654.81, -37423.12, -26691.09, -8238.54, -44898.11, 0.000, 0.000, 0.000, 14:08:30.819, 1552914510819
162, 33874.25, 52314.37, -42172.44, -14687.11, -37485.86, -26729.09, -8264.38, -44909.35, 0.000, 0.000, 0.000, 14:08:30.819, 1552914510819
163, 33892.75, 52444.28, -42179.42, -14712.25, -37557.25, -26767.87, -8289.26, -44927.83, 0.000, 0.000, 0.000, 14:08:30.819, 1552914510819
164, 33812.60, 52264.10, -42235.50, -14721.19, -37507.88, -26765.90, -8280.81, -44935.57, 0.000, 0.000, 0.000, 14:08:30.819, 1552914510819
165, 33809.27, 52115.84, -42223.70, -14661.20, -37425.92, -26744.87, -8225.04, -44888.31, 0.000, 0.000, 0.000, 14:08:30.820, 1552914510820
166, 33853.91, 52173.95, -42154.07, -14642.45, -37421.42, -26719.70, -8223.81, -44881.36, -0.022, 0.944, 0.408, 14:08:30.820, 1552914510820
167, 33884.08, 52333.93, -42142.69, -14681.38, -37454.79, -26732.19, -8260.36, -44903.11, 0.000, 0.000, 0.000, 14:08:30.820, 1552914510820
168, 33884.53, 52451.29, -42180.94, -14715.36, -37486.09, -26790.17, -8290.96, -44925.98, 0.000, 0.000, 0.000, 14:08:30.821, 1552914510821
169, 33831.51, 52282.72, -42232.82, -14702.75, -37468.79, -26777.97, -8257.70, -44906.13, 0.000, 0.000, 0.000, 14:08:30.821, 1552914510821
170, 33799.50, 52111.82, -42241.38, -14688.60, -37511.23, -26721.49, -8230.07, -44895.02, 0.000, 0.000, 0.000, 14:08:30.821, 1552914510821
171, 33839.82, 52162.49, -42195.96, -14678.41, -37542.86, -26701.04, -8229.31, -44893.43, 0.000, 0.000, 0.000, 14:08:30.821, 1552914510821
172, 33869.95, 52324.43, -42180.04, -14727.07, -37461.57, -26745.81, -8267.55, -44905.23, 0.000, 0.000, 0.000, 14:08:30.821, 1552914510821
173, 33887.79, 52463.23, -42182.10, -14734.00, -37467.09, -26776.85, -8287.24, -44914.84, 0.000, 0.000, 0.000, 14:08:30.821, 1552914510821
174, 33831.49, 52296.93, -42230.45, -14724.46, -37509.33, -26792.88, -8259.91, -44906.15, 0.000, 0.000, 0.000, 14:08:30.831, 1552914510831
175, 33804.26, 52127.26, -42227.63, -14701.48, -37452.63, -26704.19, -8240.22, -44899.47, 0.000, 0.000, 0.000, 14:08:30.832, 1552914510832
176, 33838.11, 52175.92, -42188.76, -14699.78, -37423.91, -26679.13, -8241.29, -44883.20, -0.022, 0.936, 0.404, 14:08:30.832, 1552914510832
177, 33878.47, 52336.83, -42179.77, -14736.93, -37429.71, -26737.02, -8276.72, -44900.00, 0.000, 0.000, 0.000, 14:08:30.832, 1552914510832
178, 33860.19, 52436.39, -42239.77, -14786.73, -37462.17, -26782.28, -8307.54, -44941.18, 0.000, 0.000, 0.000, 14:08:30.832, 1552914510832
179, 33844.83, 52297.98, -42226.02, -14739.14, -37459.87, -26712.84, -8261.63, -44902.24, 0.000, 0.000, 0.000, 14:08:30.832, 1552914510832
180, 33844.63, 52145.70, -42200.94, -14698.01, -37439.86, -26714.51, -8223.45, -44869.74, 0.000, 0.000, 0.000, 14:08:30.832, 1552914510832
181, 33870.25, 52190.11, -42181.47, -14703.74, -37427.68, -26701.86, -8227.72, -44864.91, 0.000, 0.000, 0.000, 14:08:30.832, 1552914510832
182, 33888.77, 52342.73, -42183.91, -14755.06, -37487.09, -26751.60, -8266.95, -44892.07, 0.000, 0.000, 0.000, 14:08:30.833, 1552914510833
183, 33879.23, 52451.36, -42205.73, -14787.04, -37549.32, -26779.13, -8287.98, -44920.39, 0.000, 0.000, 0.000, 14:08:30.833, 1552914510833
184, 33827.42, 52279.92, -42256.29, -14766.43, -37563.29, -26761.07, -8260.00, -44904.52, 0.000, 0.000, 0.000, 14:08:30.833, 1552914510833
185, 33809.38, 52125.79, -42259.68, -14724.59, -37460.94, -26728.04, -8230.27, -44871.82, 0.000, 0.000, 0.000, 14:08:30.833, 1552914510833
186, 33841.59, 52171.16, -42228.88, -14727.65, -37382.44, -26737.96, -8251.62, -44876.54, -0.022, 0.924, 0.406, 14:08:30.833, 1552914510833
187, 33896.02, 52342.15, -42175.95, -14743.54, -37437.23, -26768.72, -8273.30, -44879.33, 0.000, 0.000, 0.000, 14:08:30.833, 1552914510833
188, 33902.25, 52470.79, -42182.57, -14767.51, -37469.66, -26763.55, -8279.69, -44881.34, 0.000, 0.000, 0.000, 14:08:30.833, 1552914510833
189, 33836.36, 52296.26, -42234.36, -14757.67, -37470.89, -26726.81, -8270.55, -44908.68, 0.000, 0.000, 0.000, 14:08:30.833, 1552914510833
190, 33820.76, 52129.30, -42233.93, -14721.95, -37427.77, -26709.98, -8236.59, -44878.77, 0.000, 0.000, 0.000, 14:08:30.834, 1552914510834
191, 33861.26, 52177.08, -42202.53, -14718.13, -37415.50, -26726.31, -8227.59, -44861.34, 0.000, 0.000, 0.000, 14:08:30.834, 1552914510834
192, 33885.00, 52328.67, -42200.98, -14764.65, -37523.86, -26756.22, -8254.43, -44875.60, 0.000, 0.000, 0.000, 14:08:30.834, 1552914510834
193, 33884.62, 52444.81, -42232.32, -14792.21, -37510.27, -26826.14, -8288.47, -44908.07, 0.000, 0.000, 0.000, 14:08:30.836, 1552914510836
194, 33829.10, 52287.37, -42258.88, -14763.42, -37475.67, -26701.88, -8281.39, -44922.00, 0.000, 0.000, 0.000, 14:08:30.836, 1552914510836
195, 33820.80, 52131.78, -42241.27, -14731.03, -37441.85, -26719.34, -8249.78, -44892.25, -0.022, 0.926, 0.404, 14:08:30.836, 1552914510836
196, 33850.29, 52180.66, -42209.97, -14733.62, -37401.33, -26736.46, -8245.83, -44872.82, 0.000, 0.000, 0.000, 14:08:30.836, 1552914510836
197, 33888.04, 52337.08, -42185.83, -14754.68, -37426.30, -26751.24, -8269.50, -44883.62, 0.000, 0.000, 0.000, 14:08:30.837, 1552914510837
198, 33916.45, 52474.32, -42185.27, -14770.10, -37462.93, -26797.88, -8278.19, -44890.82, 0.000, 0.000, 0.000, 14:08:30.837, 1552914510837
199, 33842.46, 52302.99, -42243.68, -14761.25, -37489.93, -26771.85, -8271.40, -44901.25, 0.000, 0.000, 0.000, 14:08:30.837, 1552914510837
200, 33816.76, 52134.84, -42251.14, -14720.46, -37453.57, -26719.72, -8244.75, -44887.04, 0.000, 0.000, 0.000, 14:08:30.837, 1552914510837
201, 33845.99, 52175.74, -42231.99, -14729.26, -37459.42, -26739.59, -8254.12, -44890.46, 0.000, 0.000, 0.000, 14:08:30.837, 1552914510837
202, 33890.41, 52348.32, -42192.27, -14750.45, -37463.85, -26765.72, -8272.63, -44883.51, 0.000, 0.000, 0.000, 14:08:30.837, 1552914510837
203, 33896.06, 52473.63, -42212.30, -14776.78, -37474.55, -26795.56, -8287.04, -44895.82, 0.000, 0.000, 0.000, 14:08:30.837, 1552914510837
204, 33848.56, 52305.52, -42250.45, -14755.82, -37483.70, -26770.84, -8270.82, -44892.05, 0.000, 0.000, 0.000, 14:08:30.837, 1552914510837
205, 33826.93, 52136.16, -42250.92, -14727.14, -37500.75, -26739.66, -8236.75, -44866.14, -0.018, 0.928, 0.410, 14:08:30.838, 1552914510838
206, 33856.21, 52183.03, -42212.99, -14719.43, -37483.94, -26724.55, -8243.88, -44872.49, 0.000, 0.000, 0.000, 14:08:30.838, 1552914510838
207, 33891.12, 52346.04, -42190.01, -14753.96, -37456.20, -26752.82, -8280.49, -44898.19, 0.000, 0.000, 0.000, 14:08:30.838, 1552914510838
208, 33895.73, 52469.85, -42224.28, -14780.56, -37479.20, -26786.84, -8300.43, -44910.98, 0.000, 0.000, 0.000, 14:08:30.838, 1552914510838
209, 33846.60, 52303.17, -42268.24, -14748.51, -37471.11, -26767.02, -8282.26, -44911.09, 0.000, 0.000, 0.000, 14:08:30.838, 1552914510838
210, 33846.51, 52155.47, -42234.56, -14698.64, -37447.57, -26736.64, -8236.75, -44872.96, 0.000, 0.000, 0.000, 14:08:30.838, 1552914510838
211, 33879.97, 52196.57, -42214.44, -14721.55, -37440.78, -26734.45, -8255.15, -44876.64, 0.000, 0.000, 0.000, 14:08:30.838, 1552914510838
212, 33905.23, 52348.30, -42208.79, -14762.59, -37489.04, -26754.54, -8282.30, -44898.89, 0.000, 0.000, 0.000, 14:08:30.839, 1552914510839
213, 33881.29, 52465.29, -42229.86, -14793.12, -37520.20, -26812.75, -8312.66, -44929.82, 0.000, 0.000, 0.000, 14:08:30.839, 1552914510839
214, 33839.45, 52309.41, -42260.80, -14772.83, -37491.14, -26809.17, -8287.85, -44913.57, 0.000, 0.000, 0.000, 14:08:30.839, 1552914510839
215, 33833.84, 52152.32, -42259.37, -14719.09, -37498.09, -26758.66, -8244.98, -44886.53, -0.008, 0.930, 0.408, 14:08:30.839, 1552914510839
216, 33881.18, 52213.83, -42206.48, -14711.09, -37453.57, -26681.46, -8240.62, -44864.00, 0.000, 0.000, 0.000, 14:08:30.839, 1552914510839
217, 33902.63, 52368.30, -42186.14, -14727.14, -37477.88, -26736.73, -8286.19, -44894.91, 0.000, 0.000, 0.000, 14:08:30.839, 1552914510839
218, 33877.93, 52468.77, -42236.19, -14775.75, -37527.15, -26814.61, -8332.82, -44948.89, 0.000, 0.000, 0.000, 14:08:30.839, 1552914510839
219, 33845.88, 52321.18, -42264.22, -14747.39, -37490.94, -26802.36, -8298.44, -44927.50, 0.000, 0.000, 0.000, 14:08:30.839, 1552914510839
220, 33841.41, 52169.66, -42248.91, -14710.00, -37444.13, -26748.53, -8250.61, -44884.89, 0.000, 0.000, 0.000, 14:08:30.840, 1552914510840
221, 33879.30, 52219.64, -42205.43, -14711.83, -37459.02, -26743.82, -8247.26, -44871.39, 0.000, 0.000, 0.000, 14:08:30.840, 1552914510840
222, 33912.29, 52379.95, -42184.27, -14733.69, -37501.02, -26765.45, -8280.90, -44893.70, 0.000, 0.000, 0.000, 14:08:30.840, 1552914510840
223, 33895.37, 52491.77, -42219.40, -14773.09, -37522.63, -26810.60, -8313.95, -44926.25, 0.000, 0.000, 0.000, 14:08:30.840, 1552914510840
224, 33832.80, 52324.71, -42239.48, -14750.50, -37524.87, -26796.59, -8295.56, -44928.17, 0.000, 0.000, 0.000, 14:08:30.840, 1552914510840
225, 33850.55, 52187.23, -42206.77, -14677.43, -37475.92, -26730.38, -8225.40, -44874.99, -0.012, 0.946, 0.402, 14:08:31.290, 1552914511290
226, 33883.19, 52227.55, -42178.32, -14689.43, -37484.14, -26736.02, -8225.31, -44863.01, 0.000, 0.000, 0.000, 14:08:31.290, 1552914511290
227, 33911.33, 52386.27, -42167.88, -14724.66, -37504.19, -26759.62, -8268.60, -44885.77, 0.000, 0.000, 0.000, 14:08:31.290, 1552914511290
228, 33911.53, 52498.52, -42194.75, -14750.79, -37511.48, -26808.66, -8304.81, -44922.82, 0.000, 0.000, 0.000, 14:08:31.290, 1552914511290
229, 33840.29, 52322.21, -42245.49, -14747.70, -37525.87, -26823.19, -8288.38, -44920.55, 0.000, 0.000, 0.000, 14:08:31.290, 1552914511290
230, 33825.88, 52151.89, -42235.95, -14702.55, -37485.10, -26733.33, -8242.09, -44891.55, 0.000, 0.000, 0.000, 14:08:31.290, 1552914511290
231, 33872.52, 52202.95, -42202.37, -14694.84, -37422.56, -26735.57, -8241.92, -44873.94, 0.000, 0.000, 0.000, 14:08:31.290, 1552914511290
232, 33893.38, 52354.64, -42174.84, -14723.63, -37464.50, -26781.01, -8285.59, -44902.84, 0.000, 0.000, 0.000, 14:08:31.290, 1552914511290
233, 33877.40, 52461.71, -42219.40, -14777.50, -37525.85, -26831.41, -8323.16, -44944.13, 0.000, 0.000, 0.000, 14:08:31.290, 1552914511290
234, 33875.07, 52325.45, -42224.25, -14723.41, -37475.20, -26779.85, -8265.99, -44890.53, 0.000, 0.000, 0.000, 14:08:31.290, 1552914511290
235, 33875.03, 52162.78, -42203.78, -14662.59, -37455.24, -26724.17, -8225.44, -44859.59, -0.014, 0.948, 0.394, 14:08:31.290, 1552914511290
236, 33890.77, 52195.99, -42169.09, -14667.13, -37464.96, -26738.88, -8229.60, -44860.53, 0.000, 0.000, 0.000, 14:08:31.290, 1552914511290
237, 33887.84, 52332.34, -42181.45, -14737.42, -37515.10, -26809.89, -8283.02, -44899.58, 0.000, 0.000, 0.000, 14:08:31.291, 1552914511291
238, 33875.16, 52448.28, -42235.27, -14782.91, -37548.83, -26847.44, -8321.84, -44938.79, 0.000, 0.000, 0.000, 14:08:31.291, 1552914511291
239, 33869.64, 52308.07, -42237.55, -14730.63, -37498.67, -26762.57, -8277.12, -44906.38, 0.000, 0.000, 0.000, 14:08:31.291, 1552914511291
240, 33880.37, 52158.09, -42202.73, -14678.50, -37479.94, -26712.88, -8223.43, -44862.54, 0.000, 0.000, 0.000, 14:08:31.291, 1552914511291
241, 33887.77, 52192.86, -42185.09, -14692.38, -37500.50, -26739.82, -8240.69, -44865.63, 0.000, 0.000, 0.000, 14:08:31.291, 1552914511291
242, 33911.30, 52353.44, -42173.63, -14723.58, -37514.47, -26784.56, -8279.87, -44889.57, 0.000, 0.000, 0.000, 14:08:31.291, 1552914511291
243, 33899.08, 52471.03, -42212.27, -14760.02, -37585.60, -26848.60, -8300.68, -44918.89, 0.000, 0.000, 0.000, 14:08:31.291, 1552914511291
244, 33843.18, 52305.18, -42239.03, -14733.38, -37506.96, -26791.92, -8293.30, -44920.77, 0.000, 0.000, 0.000, 14:08:31.291, 1552914511291
245, 33843.13, 52148.94, -42213.91, -14682.46, -37429.76, -26746.12, -8247.21, -44877.61, -0.010, 0.954, 0.390, 14:08:31.291, 1552914511291
246, 33883.81, 52196.82, -42180.58, -14675.57, -37461.39, -26736.62, -8226.65, -44855.84, 0.000, 0.000, 0.000, 14:08:31.291, 1552914511291
247, 33913.72, 52348.34, -42177.72, -14722.45, -37496.41, -26789.39, -8272.69, -44881.77, 0.000, 0.000, 0.000, 14:08:31.291, 1552914511291
248, 33911.98, 52475.03, -42197.45, -14764.35, -37517.16, -26812.39, -8310.31, -44911.80, 0.000, 0.000, 0.000, 14:08:31.291, 1552914511291
249, 33876.95, 52330.15, -42216.32, -14726.25, -37488.19, -26753.70, -8271.58, -44897.57, 0.000, 0.000, 0.000, 14:08:31.291, 1552914511291
250, 33871.25, 52180.53, -42192.67, -14662.01, -37430.54, -26727.68, -8232.46, -44861.61, 0.000, 0.000, 0.000, 14:08:31.291, 1552914511291
251, 33900.06, 52223.80, -42169.45, -14662.54, -37455.51, -26743.73, -8232.21, -44850.54, 0.000, 0.000, 0.000, 14:08:31.291, 1552914511291
252, 33921.77, 52378.03, -42164.44, -14700.88, -37537.96, -26770.55, -8266.97, -44878.75, 0.000, 0.000, 0.000, 14:08:31.291, 1552914511291
253, 33904.42, 52497.12, -42202.59, -14758.21, -37495.83, -26839.71, -8309.89, -44922.24, 0.000, 0.000, 0.000, 14:08:31.291, 1552914511291
254, 33835.51, 52325.43, -42253.31, -14747.84, -37493.62, -26823.10, -8303.74, -44916.97, 0.000, 0.000, 0.000, 14:08:31.291, 1552914511291
255, 33853.14, 52173.93, -42219.83, -14681.88, -37487.20, -26741.83, -8252.06, -44869.72, -0.008, 0.956, 0.392, 14:08:31.291, 1552914511291
0, 33894.39, 52229.01, -42181.90, -14677.88, -37473.10, -26738.36, -8231.10, -44854.12, 0.000, 0.000, 0.000, 14:08:31.292, 1552914511292
1, 33925.41, 52393.40, -42173.49, -14706.87, -37487.14, -26763.08, -8272.04, -44885.95, 0.000, 0.000, 0.000, 14:08:31.292, 1552914511292
2, 33937.08, 52534.22, -42186.43, -14729.37, -37548.92, -26787.60, -8312.99, -44911.49, 0.000, 0.000, 0.000, 14:08:31.292, 1552914511292
3, 33878.67, 52373.46, -42218.22, -14704.90, -37483.23, -26781.48, -8287.40, -44903.34, 0.000, 0.000, 0.000, 14:08:31.292, 1552914511292
4, 33856.23, 52192.42, -42232.19, -14679.87, -37465.37, -26767.49, -8252.46, -44883.46, 0.000, 0.000, 0.000, 14:08:31.292, 1552914511292
5, 33882.58, 52239.94, -42218.15, -14680.13, -37444.78, -26757.32, -8256.31, -44882.82, 0.000, 0.000, 0.000, 14:08:31.292, 1552914511292
6, 33898.41, 52406.61, -42206.62, -14733.82, -37480.54, -26795.11, -8310.36, -44910.22, 0.000, 0.000, 0.000, 14:08:31.292, 1552914511292
7, 33935.67, 52567.81, -42171.35, -14741.38, -37498.31, -26787.92, -8299.29, -44903.36, 0.000, 0.000, 0.000, 14:08:31.292, 1552914511292
8, 33882.49, 52403.28, -42220.19, -14722.13, -37521.80, -26800.70, -8276.31, -44897.28, -0.006, 0.942, 0.396, 14:08:31.292, 1552914511292
9, 33862.38, 52224.36, -42219.94, -14680.60, -37508.59, -26803.07, -8236.33, -44864.51, 0.000, 0.000, 0.000, 14:08:31.292, 1552914511292
10, 33886.11, 52265.11, -42188.85, -14678.28, -37432.80, -26721.35, -8257.67, -44867.04, 0.000, 0.000, 0.000, 14:08:31.292, 1552914511292
11, 33918.37, 52435.65, -42171.82, -14708.43, -37472.63, -26760.27, -8295.65, -44895.24, 0.000, 0.000, 0.000, 14:08:31.292, 1552914511292
12, 33914.55, 52568.53, -42205.32, -14755.66, -37523.19, -26834.88, -8314.56, -44918.76, 0.000, 0.000, 0.000, 14:08:31.292, 1552914511292
13, 33872.70, 52418.93, -42236.95, -14724.43, -37488.34, -26796.54, -8267.26, -44890.55, 0.000, 0.000, 0.000, 14:08:31.292, 1552914511292
14, 33840.23, 52229.36, -42256.95, -14712.79, -37504.64, -26788.34, -8253.09, -44885.65, 0.000, 0.000, 0.000, 14:08:31.292, 1552914511292
15, 33892.26, 52287.68, -42211.63, -14694.91, -37516.98, -26742.05, -8235.54, -44865.63, 0.000, 0.000, 0.000, 14:08:31.292, 1552914511292
16, 33935.38, 52463.81, -42169.96, -14696.81, -37515.86, -26760.89, -8255.68, -44863.13, 0.000, 0.000, 0.000, 14:08:31.292, 1552914511292
17, 33929.93, 52597.65, -42193.77, -14730.18, -37533.43, -26824.53, -8290.64, -44891.33, 0.000, 0.000, 0.000, 14:08:31.292, 1552914511292
18, 33858.04, 52433.66, -42223.14, -14714.87, -37455.18, -26799.65, -8304.83, -44917.33, -0.006, 0.944, 0.402, 14:08:31.292, 1552914511292
19, 33844.45, 52260.75, -42201.28, -14668.49, -37428.80, -26723.05, -8240.35, -44868.98, 0.000, 0.000, 0.000, 14:08:31.293, 1552914511293
20, 33876.04, 52296.11, -42164.46, -14653.54, -37425.92, -26756.04, -8227.70, -44845.89, 0.000, 0.000, 0.000, 14:08:31.293, 1552914511293
21, 33900.40, 52464.82, -42160.24, -14694.68, -37461.90, -26790.29, -8277.34, -44881.88, 0.000, 0.000, 0.000, 14:08:31.293, 1552914511293
22, 33898.48, 52599.33, -42210.48, -14742.23, -37501.69, -26796.77, -8314.71, -44924.64, 0.000, 0.000, 0.000, 14:08:31.293, 1552914511293
23, 33838.26, 52433.70, -42248.15, -14741.47, -37502.58, -26795.76, -8297.15, -44917.64, 0.000, 0.000, 0.000, 14:08:31.293, 1552914511293
24, 33824.76, 52258.85, -42218.46, -14692.90, -37485.19, -26769.52, -8246.92, -44878.97, 0.000, 0.000, 0.000, 14:08:31.293, 1552914511293
25, 33868.01, 52304.76, -42169.00, -14654.74, -37498.29, -26750.81, -8230.49, -44865.11, 0.000, 0.000, 0.000, 14:08:31.293, 1552914511293
26, 33901.52, 52478.21, -42149.53, -14693.72, -37496.04, -26770.50, -8266.21, -44879.15, 0.000, 0.000, 0.000, 14:08:31.293, 1552914511293
27, 33905.70, 52622.62, -42173.02, -14723.32, -37469.88, -26802.94, -8302.96, -44903.36, 0.000, 0.000, 0.000, 14:08:31.293, 1552914511293
28, 33855.52, 52461.40, -42221.15, -14696.76, -37446.75, -26808.37, -8276.31, -44884.49, -0.010, 0.948, 0.410, 14:08:31.293, 1552914511293
29, 33817.38, 52263.70, -42230.51, -14678.43, -37453.88, -26756.29, -8243.43, -44864.84, 0.000, 0.000, 0.000, 14:08:31.293, 1552914511293
30, 33866.09, 52312.31, -42180.00, -14666.12, -37433.27, -26756.89, -8227.36, -44831.27, 0.000, 0.000, 0.000, 14:08:31.293, 1552914511293
31, 33908.11, 52489.34, -42164.93, -14695.40, -37460.47, -26748.78, -8262.75, -44860.87, 0.000, 0.000, 0.000, 14:08:31.293, 1552914511293
32, 33897.49, 52625.71, -42205.59, -14736.42, -37528.69, -26762.21, -8302.71, -44905.08, 0.000, 0.000, 0.000, 14:08:31.293, 1552914511293
33, 33843.94, 52471.25, -42243.54, -14700.94, -37520.44, -26749.94, -8270.03, -44878.86, 0.000, 0.000, 0.000, 14:08:31.293, 1552914511293
34, 33796.60, 52263.99, -42276.56, -14697.08, -37503.75, -26758.32, -8254.88, -44871.55, 0.000, 0.000, 0.000, 14:08:31.293, 1552914511293
35, 33842.80, 52307.33, -42225.26, -14682.41, -37421.67, -26746.74, -8248.15, -44854.94, 0.000, 0.000, 0.000, 14:08:31.293, 1552914511293
36, 33916.27, 52508.36, -42158.50, -14685.90, -37434.59, -26718.54, -8254.75, -44844.28, 0.000, 0.000, 0.000, 14:08:31.293, 1552914511293
37, 33895.28, 52648.93, -42208.18, -14734.29, -37505.45, -26802.20, -8322.31, -44909.28, 0.000, 0.000, 0.000, 14:08:31.293, 1552914511293
38, 33830.71, 52487.66, -42260.87, -14732.97, -37491.32, -26808.23, -8311.99, -44912.43, -0.006, 0.924, 0.406, 14:08:31.293, 1552914511293
39, 33831.82, 52312.27, -42244.91, -14681.07, -37431.95, -26727.54, -8255.97, -44870.45, 0.000, 0.000, 0.000, 14:08:31.294, 1552914511294
40, 33865.64, 52361.26, -42208.94, -14657.60, -37473.64, -26738.23, -8242.21, -44862.25, 0.000, 0.000, 0.000, 14:08:31.294, 1552914511294
41, 33895.17, 52532.61, -42204.05, -14702.06, -37552.58, -26815.97, -8299.56, -44897.86, 0.000, 0.000, 0.000, 14:08:31.294, 1552914511294
42, 33898.97, 52671.64, -42219.00, -14746.92, -37504.75, -26850.77, -8359.08, -44951.26, 0.000, 0.000, 0.000, 14:08:31.294, 1552914511294
43, 33845.52, 52516.63, -42244.21, -14732.24, -37489.48, -26793.75, -8330.65, -44938.49, 0.000, 0.000, 0.000, 14:08:31.294, 1552914511294
44, 33814.54, 52328.29, -42245.00, -14678.21, -37466.69, -26769.21, -8290.55, -44912.57, 0.000, 0.000, 0.000, 14:08:31.294, 1552914511294
45, 33850.15, 52372.62, -42202.73, -14670.43, -37453.74, -26740.66, -8279.38, -44894.75, 0.000, 0.000, 0.000, 14:08:31.294, 1552914511294
46, 33871.21, 52542.71, -42200.74, -14725.73, -37494.02, -26798.51, -8315.79, -44916.28, 0.000, 0.000, 0.000, 14:08:31.294, 1552914511294
47, 33900.06, 52705.21, -42218.80, -14735.59, -37543.87, -26809.38, -8316.84, -44925.08, 0.000, 0.000, 0.000, 14:08:31.294, 1552914511294
48, 33867.38, 52550.29, -42240.71, -14701.26, -37529.16, -26803.18, -8283.11, -44897.14, -0.002, 0.920, 0.404, 14:08:31.294, 1552914511294
49, 33828.31, 52349.10, -42236.28, -14681.43, -37466.93, -26792.50, -8264.07, -44872.00, 0.000, 0.000, 0.000, 14:08:31.294, 1552914511294
50, 33847.96, 52377.36, -42195.53, -14693.01, -37477.97, -26769.14, -8267.04, -44870.10, 0.000, 0.000, 0.000, 14:08:31.294, 1552914511294
51, 33902.19, 52573.29, -42155.43, -14698.26, -37461.66, -26798.78, -8283.47, -44872.60, 0.000, 0.000, 0.000, 14:08:31.294, 1552914511294
52, 33909.74, 52720.07, -42195.93, -14736.13, -37495.96, -26799.79, -8317.15, -44916.48, 0.000, 0.000, 0.000, 14:08:31.294, 1552914511294
53, 33835.42, 52538.55, -42267.71, -14729.75, -37546.21, -26775.94, -8317.31, -44932.30, 0.000, 0.000, 0.000, 14:08:31.294, 1552914511294
54, 33814.14, 52340.92, -42261.76, -14685.27, -37443.13, -26750.01, -8264.31, -44887.75, 0.000, 0.000, 0.000, 14:08:31.294, 1552914511294
55, 33854.53, 52377.87, -42199.51, -14676.65, -37430.25, -26755.82, -8252.80, -44866.72, 0.000, 0.000, 0.000, 14:08:31.295, 1552914511295
56, 33899.75, 52557.51, -42164.91, -14686.37, -37469.32, -26790.89, -8288.05, -44888.52, 0.000, 0.000, 0.000, 14:08:31.295, 1552914511295
57, 33883.37, 52684.71, -42212.36, -14725.26, -37540.74, -26816.48, -8350.70, -44945.56, 0.000, 0.000, 0.000, 14:08:31.295, 1552914511295
58, 33840.56, 52529.41, -42230.80, -14682.46, -37501.13, -26804.46, -8299.22, -44909.13, 0.014, 0.924, 0.398, 14:08:31.295, 1552914511295
59, 33813.54, 52322.48, -42241.24, -14658.79, -37482.33, -26767.08, -8245.58, -44873.94, 0.000, 0.000, 0.000, 14:08:31.295, 1552914511295
60, 33849.88, 52347.40, -42211.52, -14657.20, -37486.20, -26747.79, -8247.23, -44872.15, 0.000, 0.000, 0.000, 14:08:31.295, 1552914511295
61, 33903.26, 52532.05, -42184.80, -14680.38, -37503.45, -26764.87, -8267.28, -44875.75, 0.000, 0.000, 0.000, 14:08:31.295, 1552914511295
62, 33895.50, 52663.97, -42219.92, -14724.75, -37589.75, -26841.90, -8310.13, -44909.79, 0.000, 0.000, 0.000, 14:08:31.295, 1552914511295
63, 33849.01, 52504.29, -42236.64, -14694.15, -37542.41, -26810.69, -8299.02, -44895.98, 0.000, 0.000, 0.000, 14:08:31.295, 1552914511295
64, 33825.77, 52294.18, -42233.87, -14649.71, -37476.72, -26747.24, -8247.10, -44885.70, 0.000, 0.000, 0.000, 14:08:31.295, 1552914511295
65, 33852.95, 52314.30, -42200.20, -14647.25, -37435.57, -26731.95, -8239.01, -44869.29, 0.000, 0.000, 0.000, 14:08:31.295, 1552914511295
66, 33891.64, 52490.88, -42181.45, -14679.15, -37514.18, -26760.38, -8262.30, -44873.47, 0.000, 0.000, 0.000, 14:08:31.295, 1552914511295
67, 33900.29, 52642.80, -42216.39, -14713.95, -37515.19, -26782.28, -8300.14, -44913.59, 0.000, 0.000, 0.000, 14:08:31.295, 1552914511295
68, 33824.58, 52463.99, -42276.33, -14712.50, -37489.51, -26794.22, -8301.35, -44922.29, 0.026, 0.946, 0.398, 14:08:31.295, 1552914511295
69, 33789.15, 52244.88, -42270.70, -14688.07, -37478.00, -26765.81, -8265.43, -44894.53, 0.000, 0.000, 0.000, 14:08:31.295, 1552914511295
70, 33833.77, 52284.95, -42214.66, -14657.18, -37489.75, -26743.39, -8246.38, -44875.11, 0.000, 0.000, 0.000, 14:08:31.295, 1552914511295
71, 33875.68, 52475.88, -42183.57, -14678.32, -37504.88, -26776.12, -8273.88, -44897.16, 0.000, 0.000, 0.000, 14:08:31.295, 1552914511295
72, 33900.55, 52635.94, -42188.52, -14698.66, -37559.25, -26805.84, -8300.95, -44909.68, 0.000, 0.000, 0.000, 14:08:31.295, 1552914511295
73, 33851.70, 52466.49, -42220.99, -14681.12, -37491.23, -26786.11, -8267.71, -44888.14, 0.000, 0.000, 0.000, 14:08:31.295, 1552914511295
74, 33792.91, 52242.86, -42238.34, -14681.18, -37466.64, -26758.68, -8224.08, -44860.93, 0.000, 0.000, 0.000, 14:08:31.296, 1552914511296
75, 33796.33, 52271.59, -42206.66, -14682.10, -37508.10, -26725.06, -8215.34, -44848.62, 0.000, 0.000, 0.000, 14:08:31.296, 1552914511296
76, 33827.11, 52463.97, -42190.01, -14709.71, -37447.80, -26743.77, -8259.28, -44875.57, 0.000, 0.000, 0.000, 14:08:31.296, 1552914511296
77, 33845.99, 52621.23, -42201.43, -14736.86, -37464.68, -26772.90, -8295.94, -44897.57, 0.012, 0.970, 0.400, 14:08:31.296, 1552914511296
78, 33784.30, 52446.71, -42251.95, -14735.75, -37507.03, -26800.86, -8288.23, -44906.69, 0.000, 0.000, 0.000, 14:08:31.296, 1552914511296
79, 33760.54, 52229.74, -42237.89, -14689.83, -37422.25, -26745.11, -8243.93, -44878.52, 0.000, 0.000, 0.000, 14:08:31.296, 1552914511296
80, 33845.08, 52282.56, -42159.50, -14648.28, -37400.30, -26728.91, -8196.25, -44814.93, 0.000, 0.000, 0.000, 14:08:31.296, 1552914511296
81, 33888.55, 52462.02, -42148.57, -14698.51, -37449.14, -26743.77, -8233.15, -44838.16, 0.000, 0.000, 0.000, 14:08:31.296, 1552914511296
82, 33902.19, 52616.79, -42176.24, -14733.96, -37477.86, -26767.60, -8260.85, -44866.88, 0.000, 0.000, 0.000, 14:08:31.296, 1552914511296
83, 33829.27, 52437.66, -42243.70, -14745.87, -37474.93, -26760.67, -8254.57, -44877.45, 0.000, 0.000, 0.000, 14:08:31.296, 1552914511296
84, 33790.98, 52210.68, -42269.16, -14717.97, -37363.98, -26711.14, -8226.69, -44856.86, 0.000, 0.000, 0.000, 14:08:31.296, 1552914511296
85, 33844.07, 52251.47, -42205.37, -14703.47, -37351.20, -26692.56, -8198.75, -44815.40, 0.000, 0.000, 0.000, 14:08:31.296, 1552914511296
86, 33878.89, 52436.18, -42187.39, -14764.04, -37414.70, -26710.69, -8237.31, -44840.08, 0.000, 0.000, 0.000, 14:08:31.296, 1552914511296
87, 33865.55, 52579.10, -42237.98, -14829.20, -37497.15, -26802.58, -8304.79, -44899.36, -0.004, 0.924, 0.414, 14:08:31.296, 1552914511296
88, 33822.28, 52418.13, -42274.50, -14790.77, -37472.34, -26810.56, -8265.92, -44876.54, 0.000, 0.000, 0.000, 14:08:31.296, 1552914511296
89, 33803.39, 52198.77, -42254.68, -14720.05, -37460.90, -26715.74, -8205.84, -44845.06, 0.000, 0.000, 0.000, 14:08:31.296, 1552914511296
90, 33818.50, 52209.63, -42220.21, -14717.64, -37428.71, -26745.78, -8224.03, -44841.42, 0.000, 0.000, 0.000, 14:08:31.770, 1552914511770
91, 33856.05, 52397.76, -42213.55, -14744.17, -37463.40, -26760.00, -8268.69, -44878.77, 0.000, 0.000, 0.000, 14:08:31.770, 1552914511770
92, 33850.29, 52547.14, -42262.36, -14779.69, -37450.61, -26759.31, -8313.49, -44925.64, 0.000, 0.000, 0.000, 14:08:31.770, 1552914511770
93, 33828.20, 52404.36, -42267.86, -14735.63, -37412.26, -26733.33, -8256.87, -44878.25, 0.000, 0.000, 0.000, 14:08:31.770, 1552914511770
94, 33807.82, 52181.87, -42249.85, -14691.49, -37407.79, -26707.85, -8206.35, -44834.51, 0.000, 0.000, 0.000, 14:08:31.770, 1552914511770
95, 33827.66, 52192.68, -42218.55, -14688.47, -37420.13, -26717.44, -8209.21, -44823.65, 0.000, 0.000, 0.000, 14:08:31.770, 1552914511770
96, 33852.90, 52371.59, -42207.96, -14733.44, -37471.09, -26728.15, -8255.93, -44860.60, 0.000, 0.000, 0.000, 14:08:31.770, 1552914511770
97, 33842.21, 52524.65, -42249.54, -14775.35, -37530.41, -26801.51, -8302.64, -44908.43, -0.028, 0.908, 0.424, 14:08:31.770, 1552914511770
98, 33778.80, 52357.28, -42303.76, -14752.02, -37498.09, -26793.62, -8278.66, -44903.96, 0.000, 0.000, 0.000, 14:08:31.771, 1552914511771
99, 33764.86, 52142.71, -42269.56, -14694.24, -37428.38, -26733.40, -8237.27, -44865.00, 0.000, 0.000, 0.000, 14:08:31.771, 1552914511771
100, 33822.97, 52179.99, -42210.17, -14665.02, -37430.43, -26722.72, -8208.39, -44831.85, 0.000, 0.000, 0.000, 14:08:31.771, 1552914511771
101, 33854.40, 52365.62, -42203.13, -14716.21, -37564.72, -26737.60, -8227.81, -44841.93, 0.000, 0.000, 0.000, 14:08:31.771, 1552914511771
102, 33866.16, 52535.80, -42207.71, -14747.28, -37573.21, -26754.52, -8254.54, -44870.50, 0.000, 0.000, 0.000, 14:08:31.771, 1552914511771
103, 33791.84, 52356.34, -42262.34, -14714.98, -37387.14, -26776.70, -8266.05, -44890.50, 0.000, 0.000, 0.000, 14:08:31.771, 1552914511771
104, 33776.82, 52138.66, -42254.59, -14667.55, -37389.21, -26720.93, -8215.14, -44847.05, 0.000, 0.000, 0.000, 14:08:31.771, 1552914511771
105, 33825.54, 52168.79, -42205.59, -14650.16, -37383.98, -26682.97, -8199.76, -44817.05, 0.000, 0.000, 0.000, 14:08:31.771, 1552914511771
106, 33850.78, 52341.77, -42201.57, -14699.94, -37432.93, -26742.45, -8255.86, -44866.45, 0.000, 0.000, 0.000, 14:08:31.771, 1552914511771
107, 33859.27, 52504.96, -42227.65, -14736.10, -37471.31, -26772.18, -8287.98, -44898.53, -0.026, 0.912, 0.440, 14:08:31.771, 1552914511771
108, 33795.81, 52334.21, -42280.47, -14730.09, -37460.23, -26781.08, -8265.32, -44887.20, 0.000, 0.000, 0.000, 14:08:31.771, 1552914511771
109, 33775.81, 52119.44, -42260.26, -14683.69, -37433.70, -26714.49, -8211.40, -44841.93, 0.000, 0.000, 0.000, 14:08:31.771, 1552914511771
110, 33809.11, 52145.48, -42212.96, -14670.54, -37435.26, -26707.70, -8212.30, -44830.29, 0.000, 0.000, 0.000, 14:08:31.771, 1552914511771
111, 33863.63, 52342.62, -42186.10, -14693.14, -37443.80, -26720.95, -8233.49, -44840.77, 0.000, 0.000, 0.000, 14:08:31.771, 1552914511771
112, 33861.73, 52497.03, -42224.54, -14723.52, -37507.88, -26790.84, -8282.10, -44901.88, 0.000, 0.000, 0.000, 14:08:31.771, 1552914511771
113, 33784.82, 52321.72, -42267.62, -14715.32, -37482.20, -26800.10, -8270.86, -44896.61, 0.000, 0.000, 0.000, 14:08:31.771, 1552914511771
114, 33759.05, 52102.03, -42269.98, -14683.15, -37458.53, -26713.17, -8220.66, -44856.75, 0.000, 0.000, 0.000, 14:08:31.771, 1552914511771
115, 33800.17, 52122.03, -42222.22, -14678.59, -37442.79, -26692.94, -8202.80, -44840.41, 0.000, 0.000, 0.000, 14:08:31.771, 1552914511771
116, 33860.61, 52324.71, -42178.39, -14679.26, -37415.32, -26745.05, -8218.71, -44831.21, 0.000, 0.000, 0.000, 14:08:31.772, 1552914511772
117, 33879.57, 52503.69, -42200.52, -14712.86, -37427.46, -26747.71, -8248.15, -44854.85, -0.020, 0.908, 0.430, 14:08:31.772, 1552914511772
118, 33817.47, 52342.80, -42252.39, -14703.45, -37447.60, -26726.83, -8229.17, -44850.81, 0.000, 0.000, 0.000, 14:08:31.772, 1552914511772
119, 33774.07, 52110.59, -42259.08, -14666.81, -37414.34, -26713.15, -8207.25, -44843.57, 0.000, 0.000, 0.000, 14:08:31.772, 1552914511772
120, 33793.73, 52125.36, -42245.33, -14677.88, -37395.99, -26725.29, -8219.34, -44848.37, 0.000, 0.000, 0.000, 14:08:31.772, 1552914511772
121, 33844.61, 52321.01, -42210.84, -14713.42, -37458.28, -26735.99, -8244.75, -44863.77, 0.000, 0.000, 0.000, 14:08:31.772, 1552914511772
122, 33861.39, 52494.14, -42221.04, -14731.63, -37546.66, -26760.78, -8256.22, -44875.68, 0.000, 0.000, 0.000, 14:08:31.772, 1552914511772
123, 33787.88, 52331.09, -42271.33, -14725.13, -37491.96, -26767.60, -8259.95, -44885.45, 0.000, 0.000, 0.000, 14:08:31.772, 1552914511772
124, 33735.42, 52097.96, -42277.88, -14693.08, -37445.90, -26714.00, -8242.00, -44894.57, 0.000, 0.000, 0.000, 14:08:31.772, 1552914511772
125, 33791.37, 52125.99, -42214.93, -14658.72, -37418.36, -26688.59, -8206.15, -44849.85, 0.000, 0.000, 0.000, 14:08:31.772, 1552914511772
126, 33838.73, 52327.18, -42183.13, -14671.39, -37439.75, -26715.12, -8230.60, -44853.89, 0.000, 0.000, 0.000, 14:08:31.772, 1552914511772
127, 33828.22, 52486.30, -42236.17, -14716.32, -37569.46, -26779.83, -8282.66, -44905.86, -0.012, 0.930, 0.432, 14:08:31.772, 1552914511772
128, 33746.80, 52307.02, -42277.45, -14717.55, -37527.28, -26814.92, -8288.72, -44928.57, 0.000, 0.000, 0.000, 14:08:31.772, 1552914511772
129, 33748.61, 52111.26, -42238.45, -14649.98, -37410.43, -26737.31, -8221.69, -44862.61, 0.000, 0.000, 0.000, 14:08:31.772, 1552914511772
130, 33781.11, 52135.66, -42201.90, -14645.67, -37388.07, -26669.32, -8197.93, -44836.64, 0.000, 0.000, 0.000, 14:08:31.773, 1552914511773
131, 33829.43, 52337.70, -42177.05, -14666.81, -37437.05, -26705.95, -8224.35, -44853.38, 0.000, 0.000, 0.000, 14:08:31.773, 1552914511773
132, 33830.37, 52506.86, -42198.91, -14692.78, -37491.74, -26736.62, -8263.82, -44896.85, 0.000, 0.000, 0.000, 14:08:31.773, 1552914511773
133, 33746.73, 52333.79, -42264.78, -14702.51, -37503.54, -26756.33, -8262.32, -44905.79, 0.000, 0.000, 0.000, 14:08:31.773, 1552914511773
134, 33729.18, 52109.98, -42266.23, -14647.41, -37472.43, -26705.55, -8210.44, -44861.00, 0.000, 0.000, 0.000, 14:08:31.773, 1552914511773
135, 33765.35, 52122.86, -42249.76, -14643.54, -37452.54, -26702.38, -8204.83, -44846.74, 0.000, 0.000, 0.000, 14:08:31.773, 1552914511773
136, 33793.89, 52308.45, -42238.00, -14706.35, -37531.35, -26765.25, -8263.86, -44893.70, 0.000, 0.000, 0.000, 14:08:31.773, 1552914511773
137, 33855.27, 52517.50, -42215.31, -14705.91, -37484.48, -26784.81, -8282.08, -44909.21, -0.010, 0.932, 0.426, 14:08:31.773, 1552914511773
138, 33832.92, 52378.36, -42229.17, -14674.59, -37433.05, -26729.94, -8234.87, -44864.20, 0.000, 0.000, 0.000, 14:08:31.773, 1552914511773
139, 33779.32, 52129.50, -42243.88, -14652.91, -37436.38, -26668.92, -8192.16, -44834.69, 0.000, 0.000, 0.000, 14:08:31.773, 1552914511773
140, 33790.16, 52128.04, -42228.84, -14666.63, -37467.25, -26681.70, -8199.47, -44840.41, 0.000, 0.000, 0.000, 14:08:31.773, 1552914511773
141, 33841.79, 52332.11, -42215.11, -14702.73, -37488.75, -26723.66, -8242.70, -44869.02, 0.000, 0.000, 0.000, 14:08:31.773, 1552914511773
142, 33860.84, 52513.21, -42235.61, -14731.52, -37455.80, -26782.73, -8293.17, -44910.20, 0.000, 0.000, 0.000, 14:08:31.773, 1552914511773
143, 33794.88, 52344.03, -42285.90, -14719.56, -37481.71, -26785.73, -8285.05, -44917.75, 0.000, 0.000, 0.000, 14:08:31.773, 1552914511773
144, 33769.19, 52115.19, -42280.80, -14674.12, -37452.98, -26729.98, -8229.96, -44876.18, 0.000, 0.000, 0.000, 14:08:31.773, 1552914511773
145, 33811.24, 52137.30, -42226.54, -14659.77, -37427.19, -26729.80, -8211.20, -44849.89, 0.000, 0.000, 0.000, 14:08:31.773, 1552914511773
146, 33870.22, 52353.15, -42190.86, -14688.58, -37450.61, -26729.40, -8238.56, -44861.31, 0.000, 0.000, 0.000, 14:08:31.773, 1552914511773
147, 33872.26, 52524.68, -42212.59, -14729.89, -37514.74, -26767.46, -8273.41, -44893.61, -0.018, 0.934, 0.432, 14:08:31.773, 1552914511773
148, 33801.07, 52349.04, -42266.12, -14711.94, -37528.33, -26761.72, -8242.00, -44885.45, 0.000, 0.000, 0.000, 14:08:31.774, 1552914511774
149, 33768.55, 52101.82, -42279.75, -14670.14, -37427.05, -26706.96, -8207.02, -44860.93, 0.000, 0.000, 0.000, 14:08:31.774, 1552914511774
150, 33820.73, 52121.32, -42225.35, -14636.35, -37366.57, -26699.76, -8197.81, -44834.58, 0.000, 0.000, 0.000, 14:08:31.774, 1552914511774
151, 33882.85, 52340.74, -42179.13, -14671.75, -37448.63, -26723.90, -8229.62, -44847.93, 0.000, 0.000, 0.000, 14:08:31.774, 1552914511774
152, 33901.38, 52534.11, -42188.29, -14701.43, -37487.18, -26754.88, -8244.08, -44873.61, 0.000, 0.000, 0.000, 14:08:31.774, 1552914511774
153, 33845.41, 52378.25, -42237.66, -14682.99, -37499.81, -26753.16, -8222.02, -44855.19, 0.000, 0.000, 0.000, 14:08:31.774, 1552914511774
154, 33785.62, 52115.30, -42280.22, -14664.06, -37510.23, -26707.21, -8202.64, -44853.63, 0.000, 0.000, 0.000, 14:08:31.774, 1552914511774
155, 33812.27, 52124.47, -42214.26, -14645.64, -37360.40, -26716.23, -8200.61, -44834.94, 0.000, 0.000, 0.000, 14:08:31.774, 1552914511774
156, 33858.53, 52338.98, -42192.65, -14678.55, -37403.81, -26753.12, -8234.96, -44858.07, -0.022, 0.920, 0.428, 14:08:31.774, 1552914511774
157, 33854.87, 52509.12, -42234.22, -14732.06, -37472.36, -26779.76, -8275.93, -44902.66, 0.000, 0.000, 0.000, 14:08:31.774, 1552914511774
158, 33810.39, 52345.91, -42283.87, -14706.58, -37443.33, -26741.56, -8215.14, -44856.51, 0.000, 0.000, 0.000, 14:08:31.774, 1552914511774
159, 33783.43, 52100.84, -42269.67, -14681.16, -37383.27, -26675.22, -8170.61, -44812.86, 0.000, 0.000, 0.000, 14:08:31.774, 1552914511774
160, 33844.21, 52129.88, -42200.20, -14658.65, -37336.98, -26647.32, -8163.39, -44793.16, 0.000, 0.000, 0.000, 14:08:31.774, 1552914511774
161, 33892.39, 52339.85, -42189.50, -14691.71, -37417.58, -26684.92, -8212.88, -44823.52, 0.000, 0.000, 0.000, 14:08:31.775, 1552914511775
162, 33888.29, 52514.15, -42224.07, -14739.25, -37517.54, -26753.07, -8257.76, -44876.31, 0.000, 0.000, 0.000, 14:08:31.775, 1552914511775
163, 33806.27, 52339.76, -42276.82, -14733.02, -37460.18, -26762.79, -8263.31, -44892.43, 0.000, 0.000, 0.000, 14:08:31.775, 1552914511775
164, 33774.56, 52096.62, -42266.16, -14687.35, -37378.26, -26727.12, -8198.89, -44841.22, 0.000, 0.000, 0.000, 14:08:31.775, 1552914511775
165, 33797.58, 52095.54, -42233.75, -14680.31, -37394.89, -26694.24, -8194.64, -44834.51, 0.000, 0.000, 0.000, 14:08:31.775, 1552914511775
166, 33852.23, 52315.35, -42209.55, -14718.38, -37458.37, -26730.47, -8230.40, -44850.07, -0.036, 0.902, 0.416, 14:08:31.775, 1552914511775
167, 33874.20, 52507.42, -42220.23, -14759.08, -37457.48, -26755.30, -8268.18, -44880.89, 0.000, 0.000, 0.000, 14:08:31.775, 1552914511775
168, 33786.45, 52321.52, -42288.85, -14775.71, -37506.05, -26770.77, -8271.15, -44901.08, 0.000, 0.000, 0.000, 14:08:31.775, 1552914511775
169, 33767.79, 52082.94, -42261.34, -14677.14, -37447.87, -26742.92, -8211.79, -44863.41, 0.000, 0.000, 0.000, 14:08:31.775, 1552914511775
170, 33801.38, 52089.64, -42211.52, -14653.45, -37399.90, -26706.60, -8201.50, -44840.14, 0.000, 0.000, 0.000, 14:08:31.775, 1552914511775
171, 33868.23, 52317.90, -42182.97, -14678.88, -37404.68, -26729.58, -8221.84, -44844.17, 0.000, 0.000, 0.000, 14:08:31.775, 1552914511775
172, 33886.11, 52511.09, -42207.49, -14718.04, -37433.52, -26770.95, -8253.76, -44880.78, 0.000, 0.000, 0.000, 14:08:31.775, 1552914511775
173, 33824.07, 52339.76, -42242.32, -14696.36, -37469.66, -26777.72, -8225.87, -44872.11, 0.000, 0.000, 0.000, 14:08:31.775, 1552914511775
174, 33781.20, 52077.08, -42248.51, -14665.29, -37457.66, -26700.92, -8202.93, -44864.75, 0.000, 0.000, 0.000, 14:08:31.775, 1552914511775
175, 33827.93, 52092.19, -42198.06, -14640.06, -37448.98, -26673.59, -8199.87, -44848.41, 0.000, 0.000, 0.000, 14:08:31.775, 1552914511775
176, 33905.61, 52332.65, -42144.17, -14644.91, -37388.99, -26686.26, -8212.72, -44832.17, -0.040, 0.914, 0.408, 14:08:31.775, 1552914511775
177, 33912.82, 52520.99, -42167.39, -14701.30, -37425.11, -26724.91, -8257.90, -44872.04, 0.000, 0.000, 0.000, 14:08:31.775, 1552914511775
178, 33847.83, 52349.82, -42227.50, -14685.50, -37445.56, -26754.66, -8246.30, -44883.44, 0.000, 0.000, 0.000, 14:08:31.776, 1552914511776
179, 33797.27, 52086.78, -42235.95, -14658.43, -37436.02, -26727.30, -8209.73, -44864.24, 0.000, 0.000, 0.000, 14:08:31.776, 1552914511776
180, 33840.92, 52099.81, -42184.98, -14637.08, -37414.27, -26679.02, -8187.76, -44840.88, 0.000, 0.000, 0.000, 14:08:31.776, 1552914511776
181, 33879.99, 52313.23, -42191.73, -14687.98, -37497.06, -26761.81, -8216.90, -44851.75, 0.000, 0.000, 0.000, 14:08:31.776, 1552914511776
182, 33880.46, 52496.85, -42217.41, -14733.20, -37481.80, -26774.80, -8275.71, -44896.27, 0.000, 0.000, 0.000, 14:08:31.776, 1552914511776
183, 33815.89, 52336.25, -42261.38, -14716.77, -37409.93, -26772.03, -8280.96, -44913.39, 0.000, 0.000, 0.000, 14:08:31.776, 1552914511776
184, 33770.47, 52077.46, -42264.62, -14675.53, -37392.30, -26744.87, -8233.02, -44881.23, 0.000, 0.000, 0.000, 14:08:31.776, 1552914511776
185, 33847.76, 52104.08, -42184.87, -14630.22, -37374.51, -26668.07, -8198.04, -44844.19, 0.000, 0.000, 0.000, 14:08:31.776, 1552914511776
186, 33903.30, 52333.86, -42155.19, -14679.89, -37440.82, -26705.68, -8239.23, -44865.47, -0.046, 0.922, 0.402, 14:08:31.776, 1552914511776
187, 33907.35, 52523.60, -42177.45, -14718.85, -37476.14, -26776.92, -8274.64, -44897.48, 0.000, 0.000, 0.000, 14:08:31.776, 1552914511776
188, 33853.17, 52364.55, -42223.90, -14689.77, -37458.01, -26751.28, -8250.30, -44883.22, 0.000, 0.000, 0.000, 14:08:31.776, 1552914511776
189, 33807.41, 52102.79, -42240.32, -14647.79, -37484.03, -26730.27, -8215.05, -44853.11, 0.000, 0.000, 0.000, 14:08:31.776, 1552914511776
190, 33821.25, 52091.14, -42218.09, -14646.61, -37428.35, -26745.52, -8216.88, -44850.81, 0.000, 0.000, 0.000, 14:08:31.776, 1552914511776
191, 33875.92, 52320.54, -42187.80, -14686.15, -37402.00, -26756.33, -8237.98, -44865.63, 0.000, 0.000, 0.000, 14:08:31.777, 1552914511777
192, 33903.04, 52520.14, -42193.97, -14711.74, -37437.27, -26782.28, -8268.16, -44893.16, 0.000, 0.000, 0.000, 14:08:31.777, 1552914511777
193, 33843.42, 52361.02, -42230.85, -14700.47, -37437.45, -26765.45, -8248.26, -44885.95, 0.000, 0.000, 0.000, 14:08:31.777, 1552914511777
194, 33807.64, 52111.77, -42222.38, -14655.23, -37402.94, -26701.95, -8198.89, -44850.67, 0.000, 0.000, 0.000, 14:08:31.777, 1552914511777
195, 33828.65, 52099.57, -42200.29, -14641.15, -37374.15, -26704.05, -8201.97, -44850.23, 0.000, 0.000, 0.000, 14:08:31.777, 1552914511777
196, 33879.16, 52319.20, -42175.48, -14673.18, -37417.55, -26749.47, -8243.35, -44871.50, -0.048, 0.940, 0.402, 14:08:31.777, 1552914511777
197, 33901.85, 52507.96, -42190.86, -14718.38, -37490.16, -26824.37, -8278.77, -44901.21, 0.000, 0.000, 0.000, 14:08:31.777, 1552914511777
198, 33843.78, 52358.60, -42228.79, -14695.91, -37472.63, -26792.92, -8254.21, -44887.82, 0.000, 0.000, 0.000, 14:08:31.777, 1552914511777
199, 33798.05, 52103.59, -42225.39, -14640.41, -37431.35, -26714.11, -8209.06, -44862.68, 0.000, 0.000, 0.000, 14:08:31.777, 1552914511777
200, 33815.08, 52084.26, -42198.01, -14636.46, -37409.24, -26725.58, -8210.94, -44861.76, 0.000, 0.000, 0.000, 14:08:31.777, 1552914511777
201, 33888.84, 52316.83, -42170.36, -14659.55, -37433.11, -26722.20, -8224.88, -44858.43, 0.000, 0.000, 0.000, 14:08:31.777, 1552914511777
202, 33916.74, 52525.05, -42172.04, -14683.17, -37449.23, -26743.15, -8258.66, -44884.13, 0.000, 0.000, 0.000, 14:08:31.777, 1552914511777
203, 33857.41, 52369.26, -42206.04, -14671.48, -37459.69, -26759.93, -8236.42, -44880.16, 0.000, 0.000, 0.000, 14:08:31.778, 1552914511778
204, 33793.58, 52094.45, -42228.90, -14639.19, -37437.96, -26729.91, -8202.04, -44855.66, 0.000, 0.000, 0.000, 14:08:31.778, 1552914511778
205, 33820.18, 52088.46, -42186.59, -14627.38, -37409.13, -26702.87, -8197.86, -44839.70, 0.000, 0.000, 0.000, 14:08:31.778, 1552914511778
206, 33899.82, 52318.68, -42158.27, -14654.83, -37446.23, -26727.54, -8221.08, -44846.43, -0.038, 0.954, 0.424, 14:08:31.778, 1552914511778
207, 33931.15, 52529.19, -42160.57, -14683.06, -37455.67, -26745.43, -8244.13, -44866.97, 0.000, 0.000, 0.000, 14:08:31.778, 1552914511778
208, 33865.08, 52374.20, -42208.27, -14661.78, -37431.46, -26743.95, -8231.07, -44867.62, 0.000, 0.000, 0.000, 14:08:31.778, 1552914511778
209, 33812.80, 52105.45, -42218.44, -14617.46, -37419.86, -26724.68, -8197.75, -44844.48, 0.000, 0.000, 0.000, 14:08:31.778, 1552914511778
210, 33817.72, 52078.45, -42203.27, -14623.54, -37435.86, -26697.41, -8203.65, -44841.04, 0.000, 0.000, 0.000, 14:08:32.251, 1552914512251
211, 33884.08, 52306.75, -42173.80, -14664.20, -37458.89, -26731.32, -8231.19, -44851.21, 0.000, 0.000, 0.000, 14:08:32.251, 1552914512251
212, 33911.82, 52511.80, -42180.02, -14682.35, -37480.66, -26743.44, -8260.85, -44870.03, 0.000, 0.000, 0.000, 14:08:32.251, 1552914512251
213, 33839.78, 52350.22, -42236.50, -14669.56, -37482.27, -26755.57, -8251.21, -44874.03, 0.000, 0.000, 0.000, 14:08:32.251, 1552914512251
214, 33803.04, 52097.18, -42246.76, -14632.39, -37452.29, -26742.83, -8208.37, -44848.37, 0.000, 0.000, 0.000, 14:08:32.251, 1552914512251
215, 33818.37, 52088.79, -42235.79, -14636.86, -37412.17, -26723.57, -8203.00, -44837.17, 0.000, 0.000, 0.000, 14:08:32.252, 1552914512252
216, 33864.50, 52296.89, -42198.24, -14670.39, -37429.78, -26725.35, -8222.63, -44839.05, -0.028, 0.958, 0.440, 14:08:32.252, 1552914512252
217, 33906.54, 52503.93, -42180.85, -14686.71, -37480.57, -26757.45, -8242.32, -44852.82, 0.000, 0.000, 0.000, 14:08:32.252, 1552914512252
218, 33851.45, 52352.30, -42216.68, -14673.54, -37461.95, -26744.73, -8220.19, -44840.93, 0.000, 0.000, 0.000, 14:08:32.252, 1552914512252
219, 33787.63, 52076.79, -42237.57, -14650.88, -37430.92, -26720.53, -8190.98, -44825.91, 0.000, 0.000, 0.000, 14:08:32.252, 1552914512252
220, 33794.59, 52052.99, -42224.30, -14651.19, -37444.45, -26725.62, -8202.51, -44821.97, 0.000, 0.000, 0.000, 14:08:32.252, 1552914512252
221, 33864.57, 52287.32, -42197.61, -14671.19, -37458.32, -26764.83, -8206.11, -44817.88, 0.000, 0.000, 0.000, 14:08:32.252, 1552914512252
222, 33888.73, 52491.59, -42217.46, -14698.93, -37475.94, -26759.26, -8243.79, -44850.56, 0.000, 0.000, 0.000, 14:08:32.252, 1552914512252
223, 33826.35, 52338.04, -42265.94, -14681.59, -37436.73, -26727.63, -8232.13, -44850.70, 0.000, 0.000, 0.000, 14:08:32.252, 1552914512252
224, 33796.06, 52084.01, -42241.29, -14635.23, -37408.82, -26682.60, -8178.75, -44803.55, 0.000, 0.000, 0.000, 14:08:32.252, 1552914512252
225, 33810.50, 52067.52, -42209.99, -14630.76, -37403.21, -26678.95, -8166.61, -44790.32, -0.010, 0.940, 0.460, 14:08:32.252, 1552914512252
226, 33854.42, 52290.81, -42181.27, -14652.80, -37420.82, -26719.92, -8208.81, -44807.71, 0.000, 0.000, 0.000, 14:08:32.252, 1552914512252
227, 33859.27, 52484.22, -42216.27, -14706.22, -37456.80, -26769.37, -8253.98, -44845.80, 0.000, 0.000, 0.000, 14:08:32.252, 1552914512252
228, 33780.77, 52315.44, -42290.30, -14708.83, -37453.79, -26762.05, -8240.66, -44847.75, 0.000, 0.000, 0.000, 14:08:32.252, 1552914512252
229, 33728.94, 52047.53, -42298.24, -14667.30, -37419.41, -26715.72, -8201.01, -44818.78, 0.000, 0.000, 0.000, 14:08:32.252, 1552914512252
230, 33754.57, 52031.06, -42243.70, -14660.78, -37405.11, -26692.12, -8188.14, -44800.67, 0.000, 0.000, 0.000, 14:08:32.252, 1552914512252
231, 33794.52, 52247.96, -42222.20, -14714.98, -37434.63, -26728.19, -8229.78, -44825.35, 0.000, 0.000, 0.000, 14:08:32.252, 1552914512252
232, 33809.88, 52453.15, -42228.16, -14751.53, -37451.35, -26751.42, -8259.39, -44847.72, 0.000, 0.000, 0.000, 14:08:32.252, 1552914512252
233, 33728.96, 52281.85, -42271.77, -14710.84, -37445.41, -26743.24, -8242.54, -44837.02, 0.000, 0.000, 0.000, 14:08:32.252, 1552914512252
234, 33660.72, 52012.22, -42273.94, -14676.11, -37404.41, -26729.20, -8202.55, -44814.71, 0.000, 0.000, 0.000, 14:08:32.253, 1552914512253
235, 33624.78, 51958.57, -42257.11, -14680.78, -37391.47, -26739.59, -8203.04, -44814.00, -0.028, 0.888, 0.462, 14:08:32.253, 1552914512253
236, 33631.53, 52140.20, -42227.36, -14714.71, -37433.45, -26754.46, -8245.67, -44832.73, 0.000, 0.000, 0.000, 14:08:32.253, 1552914512253
237, 33642.14, 52323.20, -42220.57, -14750.12, -37452.07, -26793.57, -8283.51, -44863.46, 0.000, 0.000, 0.000, 14:08:32.253, 1552914512253
238, 33526.61, 52137.23, -42261.92, -14731.07, -37448.87, -26793.13, -8274.55, -44864.24, 0.000, 0.000, 0.000, 14:08:32.253, 1552914512253
239, 33401.24, 51826.05, -42274.03, -14699.92, -37408.26, -26750.46, -8238.12, -44838.65, 0.000, 0.000, 0.000, 14:08:32.253, 1552914512253
240, 33363.66, 51771.33, -42215.52, -14711.74, -37405.62, -26753.21, -8226.83, -44818.24, 0.000, 0.000, 0.000, 14:08:32.253, 1552914512253
241, 33363.42, 51970.40, -42154.25, -14730.04, -37442.79, -26742.25, -8242.85, -44822.33, 0.000, 0.000, 0.000, 14:08:32.253, 1552914512253
242, 33294.89, 52123.57, -42191.69, -14784.70, -37481.62, -26802.47, -8295.11, -44868.76, 0.000, 0.000, 0.000, 14:08:32.253, 1552914512253
243, 33146.54, 51947.98, -42237.20, -14756.11, -37490.82, -26794.76, -8270.41, -44855.93, 0.000, 0.000, 0.000, 14:08:32.253, 1552914512253
244, 33039.74, 51661.09, -42250.18, -14742.83, -37458.59, -26740.89, -8245.02, -44844.13, 0.000, 0.000, 0.000, 14:08:32.253, 1552914512253
245, 33004.85, 51605.75, -42219.80, -14740.01, -37431.59, -26775.73, -8239.88, -44821.53, -0.056, 0.892, 0.458, 14:08:32.253, 1552914512253
246, 33015.38, 51799.85, -42171.19, -14763.17, -37479.65, -26767.11, -8269.12, -44836.73, 0.000, 0.000, 0.000, 14:08:32.253, 1552914512253
247, 32986.61, 51973.46, -42189.74, -14803.13, -37539.86, -26791.81, -8304.79, -44882.70, 0.000, 0.000, 0.000, 14:08:32.253, 1552914512253
248, 32901.77, 51820.77, -42240.73, -14770.86, -37498.16, -26773.34, -8286.33, -44875.28, 0.000, 0.000, 0.000, 14:08:32.253, 1552914512253
249, 32838.22, 51562.19, -42232.23, -14712.41, -37438.07, -26738.88, -8227.77, -44829.24, 0.000, 0.000, 0.000, 14:08:32.253, 1552914512253
250, 32832.77, 51528.44, -42216.54, -14739.92, -37450.32, -26746.37, -8230.05, -44826.94, 0.000, 0.000, 0.000, 14:08:32.253, 1552914512253
251, 32871.19, 51741.25, -42195.78, -14781.97, -37468.74, -26750.21, -8274.33, -44857.69, 0.000, 0.000, 0.000, 14:08:32.253, 1552914512253
252, 32888.22, 51945.52, -42217.91, -14802.31, -37506.41, -26816.53, -8307.29, -44883.26, 0.000, 0.000, 0.000, 14:08:32.253, 1552914512253
253, 32837.08, 51826.38, -42258.27, -14768.58, -37481.13, -26796.75, -8270.44, -44859.17, 0.000, 0.000, 0.000, 14:08:32.254, 1552914512254
254, 32799.35, 51594.95, -42261.47, -14724.52, -37503.36, -26787.94, -8208.99, -44825.28, 0.000, 0.000, 0.000, 14:08:32.254, 1552914512254
255, 32816.96, 51581.03, -42243.05, -14726.27, -37468.83, -26701.33, -8221.80, -44833.17, -0.090, 0.884, 0.444, 14:08:32.254, 1552914512254
0, 32900.89, 51816.89, -42197.77, -14756.15, -37402.94, -26728.64, -8259.95, -44846.45, 0.000, 0.000, 0.000, 14:08:32.254, 1552914512254
1, 32944.13, 52040.63, -42215.49, -14800.39, -37456.80, -26796.99, -8298.38, -44876.98, 0.000, 0.000, 0.000, 14:08:32.254, 1552914512254
2, 32892.18, 51907.21, -42268.46, -14794.42, -37435.26, -26811.39, -8288.47, -44881.77, 0.000, 0.000, 0.000, 14:08:32.254, 1552914512254
3, 32908.38, 51698.04, -42256.11, -14727.88, -37420.75, -26732.84, -8215.38, -44829.06, 0.000, 0.000, 0.000, 14:08:32.254, 1552914512254
4, 32947.30, 51702.36, -42238.02, -14737.67, -37440.78, -26728.42, -8212.30, -44824.61, 0.000, 0.000, 0.000, 14:08:32.254, 1552914512254
5, 33019.85, 51926.95, -42207.87, -14767.66, -37452.56, -26796.83, -8257.49, -44840.23, 0.000, 0.000, 0.000, 14:08:32.254, 1552914512254
6, 33062.18, 52139.40, -42232.30, -14791.51, -37539.17, -26802.33, -8284.50, -44872.73, 0.000, 0.000, 0.000, 14:08:32.254, 1552914512254
7, 33039.54, 52023.82, -42250.96, -14753.98, -37399.41, -26747.42, -8267.28, -44874.19, 0.000, 0.000, 0.000, 14:08:32.254, 1552914512254
8, 33011.85, 51780.63, -42234.56, -14713.79, -37406.16, -26713.66, -8222.80, -44844.48, 0.000, 0.000, 0.000, 14:08:32.254, 1552914512254
9, 33060.02, 51786.44, -42204.63, -14719.43, -37407.61, -26754.25, -8219.90, -44823.45, -0.100, 0.894, 0.434, 14:08:32.254, 1552914512254
10, 33129.20, 52005.96, -42184.91, -14747.30, -37412.84, -26765.34, -8242.52, -44827.00, 0.000, 0.000, 0.000, 14:08:32.254, 1552914512254
11, 33173.52, 52233.30, -42192.40, -14764.47, -37418.85, -26756.09, -8276.58, -44875.37, 0.000, 0.000, 0.000, 14:08:32.254, 1552914512254
12, 33110.02, 52098.76, -42265.40, -14768.31, -37454.17, -26769.79, -8288.41, -44900.83, 0.000, 0.000, 0.000, 14:08:32.254, 1552914512254
13, 33098.93, 51877.19, -42257.36, -14710.22, -37429.02, -26734.41, -8231.12, -44859.46, 0.000, 0.000, 0.000, 14:08:32.255, 1552914512255
14, 33177.43, 51899.59, -42209.84, -14679.98, -37401.48, -26717.98, -8192.07, -44813.32, 0.000, 0.000, 0.000, 14:08:32.255, 1552914512255
15, 33249.27, 52111.68, -42187.04, -14703.42, -37434.88, -26741.69, -8232.19, -44838.92, 0.000, 0.000, 0.000, 14:08:32.255, 1552914512255
16, 33285.28, 52324.00, -42194.41, -14740.97, -37482.96, -26788.70, -8279.06, -44886.19, 0.000, 0.000, 0.000, 14:08:32.255, 1552914512255
17, 33247.53, 52200.64, -42232.21, -14724.03, -37489.37, -26775.42, -8254.25, -44873.50, 0.000, 0.000, 0.000, 14:08:32.255, 1552914512255
18, 33229.51, 51974.09, -42229.75, -14670.72, -37387.25, -26763.15, -8218.54, -44840.75, 0.000, 0.000, 0.000, 14:08:32.256, 1552914512256
19, 33268.60, 51970.06, -42200.23, -14663.95, -37455.40, -26782.80, -8207.54, -44826.55, -0.090, 0.914, 0.424, 14:08:32.256, 1552914512256
20, 33316.53, 52164.79, -42191.93, -14704.65, -37523.50, -26738.25, -8261.43, -44872.82, 0.000, 0.000, 0.000, 14:08:32.256, 1552914512256
21, 33354.79, 52374.36, -42195.64, -14731.88, -37442.01, -26794.15, -8302.35, -44903.58, 0.000, 0.000, 0.000, 14:08:32.256, 1552914512256
22, 33342.95, 52278.63, -42211.25, -14682.77, -37423.05, -26780.23, -8260.42, -44871.59, 0.000, 0.000, 0.000, 14:08:32.256, 1552914512256
23, 33310.45, 52039.62, -42214.20, -14634.31, -37397.46, -26721.82, -8220.48, -44857.76, 0.000, 0.000, 0.000, 14:08:32.256, 1552914512256
24, 33336.60, 52016.31, -42201.75, -14642.54, -37423.23, -26766.17, -8219.88, -44844.95, 0.000, 0.000, 0.000, 14:08:32.256, 1552914512256
25, 33401.42, 52211.77, -42182.30, -14679.87, -37525.98, -26759.60, -8243.41, -44856.73, 0.000, 0.000, 0.000, 14:08:32.256, 1552914512256
26, 33447.15, 52427.56, -42182.77, -14705.48, -37459.82, -26799.72, -8268.33, -44876.56, 0.000, 0.000, 0.000, 14:08:32.256, 1552914512256
27, 33392.50, 52291.30, -42246.25, -14714.20, -37431.73, -26806.69, -8283.27, -44895.31, 0.000, 0.000, 0.000, 14:08:32.259, 1552914512259
28, 33386.75, 52072.88, -42217.64, -14645.11, -37368.50, -26731.37, -8211.90, -44842.34, 0.000, 0.000, 0.000, 14:08:32.259, 1552914512259
29, 33428.24, 52063.76, -42169.05, -14628.34, -37392.37, -26751.19, -8185.34, -44819.98, -0.068, 0.926, 0.428, 14:08:32.259, 1552914512259
30, 33480.66, 52251.67, -42159.84, -14672.71, -37450.37, -26782.57, -8238.56, -44851.99, 0.000, 0.000, 0.000, 14:08:32.259, 1552914512259
31, 33496.34, 52435.61, -42202.37, -14716.88, -37501.02, -26824.19, -8304.21, -44906.22, 0.000, 0.000, 0.000, 14:08:32.259, 1552914512259
32, 33493.30, 52343.00, -42206.62, -14659.26, -37444.85, -26754.03, -8244.26, -44871.26, 0.000, 0.000, 0.000, 14:08:32.259, 1552914512259
33, 33463.24, 52097.20, -42208.81, -14619.65, -37425.74, -26746.48, -8206.98, -44846.43, 0.000, 0.000, 0.000, 14:08:32.259, 1552914512259
34, 33493.55, 52081.13, -42166.27, -14611.25, -37402.38, -26742.72, -8188.90, -44824.45, 0.000, 0.000, 0.000, 14:08:32.259, 1552914512259
35, 33539.20, 52258.15, -42153.06, -14660.60, -37451.04, -26780.65, -8229.82, -44855.34, 0.000, 0.000, 0.000, 14:08:32.259, 1552914512259
36, 33564.07, 52455.50, -42159.93, -14694.24, -37497.31, -26835.08, -8283.42, -44899.11, 0.000, 0.000, 0.000, 14:08:32.259, 1552914512259
37, 33524.04, 52337.23, -42207.38, -14682.01, -37477.55, -26824.64, -8272.87, -44897.30, 0.000, 0.000, 0.000, 14:08:32.259, 1552914512259
38, 33491.23, 52096.08, -42225.89, -14638.29, -37452.67, -26798.06, -8235.63, -44872.96, -0.058, 0.944, 0.426, 14:08:32.260, 1552914512260
39, 33510.94, 52077.98, -42188.18, -14624.30, -37437.88, -26776.29, -8220.12, -44848.13, 0.000, 0.000, 0.000, 14:08:32.260, 1552914512260
40, 33578.38, 52276.01, -42157.98, -14647.52, -37455.44, -26771.06, -8235.97, -44843.01, 0.000, 0.000, 0.000, 14:08:32.260, 1552914512260
41, 33606.76, 52475.75, -42174.99, -14685.95, -37463.13, -26814.61, -8268.42, -44877.47, 0.000, 0.000, 0.000, 14:08:32.260, 1552914512260
42, 33559.76, 52355.20, -42205.73, -14677.50, -37459.29, -26813.76, -8261.29, -44881.88, 0.000, 0.000, 0.000, 14:08:32.260, 1552914512260
43, 33508.35, 52104.30, -42233.06, -14648.46, -37443.08, -26789.95, -8238.96, -44864.22, 0.000, 0.000, 0.000, 14:08:32.260, 1552914512260
44, 33540.98, 52096.93, -42189.05, -14627.18, -37419.72, -26763.15, -8212.72, -44838.69, 0.000, 0.000, 0.000, 14:08:32.260, 1552914512260
45, 33597.15, 52280.71, -42157.51, -14653.04, -37461.84, -26781.63, -8239.21, -44840.10, 0.000, 0.000, 0.000, 14:08:32.260, 1552914512260
46, 33635.08, 52489.45, -42166.61, -14684.25, -37509.60, -26780.23, -8267.96, -44859.86, 0.000, 0.000, 0.000, 14:08:32.260, 1552914512260
47, 33581.35, 52369.40, -42210.17, -14669.78, -37491.90, -26756.54, -8247.26, -44851.95, 0.000, 0.000, 0.000, 14:08:32.260, 1552914512260
48, 33517.60, 52113.56, -42233.48, -14655.73, -37408.10, -26767.71, -8214.20, -44834.45, -0.050, 0.926, 0.428, 14:08:32.260, 1552914512260
49, 33541.81, 52097.24, -42205.86, -14646.38, -37406.70, -26765.47, -8201.23, -44812.14, 0.000, 0.000, 0.000, 14:08:32.260, 1552914512260
50, 33595.21, 52283.12, -42169.22, -14672.22, -37454.82, -26731.21, -8239.63, -44826.18, 0.000, 0.000, 0.000, 14:08:32.260, 1552914512260
51, 33609.71, 52477.36, -42191.17, -14724.79, -37504.82, -26785.21, -8281.34, -44865.36, 0.000, 0.000, 0.000, 14:08:32.260, 1552914512260
52, 33548.61, 52354.40, -42243.28, -14715.40, -37420.08, -26800.14, -8268.94, -44872.89, 0.000, 0.000, 0.000, 14:08:32.260, 1552914512260
53, 33525.52, 52120.76, -42231.09, -14648.39, -37400.14, -26748.62, -8213.33, -44822.15, 0.000, 0.000, 0.000, 14:08:32.260, 1552914512260
54, 33575.05, 52115.19, -42180.11, -14617.30, -37443.64, -26704.43, -8174.86, -44778.01, 0.000, 0.000, 0.000, 14:08:32.260, 1552914512260
55, 33614.03, 52298.45, -42147.77, -14646.02, -37419.88, -26707.54, -8225.04, -44809.28, 0.000, 0.000, 0.000, 14:08:32.260, 1552914512260
56, 33607.25, 52482.18, -42180.69, -14716.37, -37455.24, -26768.47, -8281.99, -44861.22, 0.000, 0.000, 0.000, 14:08:32.260, 1552914512260
57, 33562.82, 52369.11, -42229.75, -14706.91, -37435.35, -26755.80, -8237.49, -44837.80, 0.000, 0.000, 0.000, 14:08:32.260, 1552914512260
58, 33520.11, 52127.29, -42233.51, -14654.94, -37394.80, -26724.97, -8196.74, -44807.00, -0.048, 0.916, 0.436, 14:08:32.261, 1552914512261
59, 33563.49, 52112.62, -42178.97, -14613.66, -37427.46, -26719.12, -8174.52, -44776.89, 0.000, 0.000, 0.000, 14:08:32.261, 1552914512261
60, 33597.66, 52284.46, -42161.51, -14649.98, -37421.94, -26750.48, -8218.00, -44811.45, 0.000, 0.000, 0.000, 14:08:32.261, 1552914512261
61, 33611.08, 52479.08, -42181.45, -14699.36, -37439.28, -26781.93, -8257.49, -44847.88, 0.000, 0.000, 0.000, 14:08:32.261, 1552914512261
62, 33546.01, 52357.13, -42236.48, -14706.93, -37423.99, -26755.55, -8251.19, -44858.32, 0.000, 0.000, 0.000, 14:08:32.261, 1552914512261
63, 33517.31, 52117.85, -42238.87, -14651.50, -37377.75, -26724.86, -8194.28, -44816.23, 0.000, 0.000, 0.000, 14:08:32.261, 1552914512261
64, 33568.99, 52102.88, -42179.24, -14627.58, -37389.71, -26710.91, -8171.10, -44776.55, 0.000, 0.000, 0.000, 14:08:32.261, 1552914512261
65, 33614.96, 52282.70, -42150.45, -14655.03, -37429.83, -26739.95, -8210.71, -44797.90, 0.000, 0.000, 0.000, 14:08:32.261, 1552914512261
66, 33622.75, 52470.27, -42175.08, -14688.74, -37459.76, -26804.52, -8252.76, -44841.11, 0.000, 0.000, 0.000, 14:08:32.261, 1552914512261
67, 33564.56, 52358.04, -42220.72, -14672.51, -37466.71, -26768.76, -8221.11, -44829.84, 0.000, 0.000, 0.000, 14:08:32.262, 1552914512262
68, 33499.77, 52098.59, -42252.95, -14664.78, -37427.19, -26771.38, -8204.57, -44819.11, -0.044, 0.908, 0.440, 14:08:32.262, 1552914512262
69, 33522.88, 52070.02, -42214.93, -14652.71, -37380.72, -26754.28, -8200.43, -44808.92, 0.000, 0.000, 0.000, 14:08:32.262, 1552914512262
70, 33609.67, 52272.73, -42154.61, -14649.00, -37411.84, -26709.37, -8204.25, -44800.70, 0.000, 0.000, 0.000, 14:08:32.262, 1552914512262
71, 33628.96, 52464.41, -42181.81, -14704.74, -37492.55, -26778.55, -8249.04, -44839.72, 0.000, 0.000, 0.000, 14:08:32.262, 1552914512262
72, 33566.22, 52348.92, -42226.18, -14696.03, -37437.56, -26786.33, -8246.21, -44846.76, 0.000, 0.000, 0.000, 14:08:32.262, 1552914512262
73, 33522.07, 52105.98, -42227.18, -14645.78, -37365.01, -26741.80, -8215.07, -44826.13, 0.000, 0.000, 0.000, 14:08:32.262, 1552914512262
74, 33570.91, 52091.32, -42173.47, -14609.37, -37345.32, -26709.75, -8178.01, -44782.41, 0.000, 0.000, 0.000, 14:08:32.730, 1552914512730
75, 33608.60, 52260.70, -42163.91, -14646.90, -37385.97, -26716.28, -8214.15, -44798.44, 0.000, 0.000, 0.000, 14:08:32.731, 1552914512731
76, 33622.59, 52459.54, -42181.14, -14687.26, -37456.98, -26774.24, -8258.88, -44838.47, 0.000, 0.000, 0.000, 14:08:32.731, 1552914512731
77, 33552.16, 52338.87, -42228.88, -14690.21, -37475.63, -26774.95, -8257.56, -44851.88, 0.000, 0.000, 0.000, 14:08:32.731, 1552914512731
78, 33519.03, 52106.74, -42228.79, -14647.25, -37395.12, -26728.33, -8211.05, -44820.77, -0.052, 0.910, 0.434, 14:08:32.731, 1552914512731
79, 33558.55, 52089.84, -42179.35, -14611.42, -37337.61, -26700.07, -8175.02, -44775.06, 0.000, 0.000, 0.000, 14:08:32.731, 1552914512731
80, 33602.05, 52258.78, -42149.96, -14634.38, -37392.61, -26735.77, -8212.92, -44792.47, 0.000, 0.000, 0.000, 14:08:32.731, 1552914512731
81, 33611.61, 52445.44, -42178.95, -14684.60, -37470.60, -26785.88, -8261.38, -44845.02, 0.000, 0.000, 0.000, 14:08:32.731, 1552914512731
82, 33556.65, 52328.09, -42221.30, -14664.71, -37433.07, -26790.78, -8243.64, -44846.56, 0.000, 0.000, 0.000, 14:08:32.731, 1552914512731
83, 33504.86, 52076.84, -42233.73, -14639.36, -37411.72, -26768.78, -8215.09, -44830.54, 0.000, 0.000, 0.000, 14:08:32.731, 1552914512731
84, 33558.98, 52073.66, -42174.10, -14607.54, -37358.70, -26743.39, -8181.88, -44786.25, 0.000, 0.000, 0.000, 14:08:32.731, 1552914512731
85, 33605.98, 52249.41, -42140.23, -14632.81, -37398.20, -26762.05, -8210.44, -44802.08, 0.000, 0.000, 0.000, 14:08:32.731, 1552914512731
86, 33617.83, 52439.74, -42158.16, -14677.92, -37463.58, -26771.46, -8248.11, -44837.66, 0.000, 0.000, 0.000, 14:08:32.731, 1552914512731
87, 33534.77, 52305.74, -42219.18, -14693.66, -37489.95, -26802.62, -8235.48, -44834.11, 0.000, 0.000, 0.000, 14:08:32.731, 1552914512731
88, 33465.75, 52032.00, -42251.25, -14653.56, -37450.48, -26765.68, -8226.58, -44844.46, -0.052, 0.916, 0.424, 14:08:32.731, 1552914512731
89, 33511.84, 52019.73, -42170.90, -14592.38, -37358.17, -26691.29, -8184.09, -44803.73, 0.000, 0.000, 0.000, 14:08:32.731, 1552914512731
90, 33543.93, 52176.61, -42134.24, -14623.67, -37377.88, -26731.88, -8206.93, -44808.36, 0.000, 0.000, 0.000, 14:08:32.731, 1552914512731
91, 33530.70, 52334.91, -42173.11, -14675.57, -37432.82, -26758.08, -8263.04, -44859.57, 0.000, 0.000, 0.000, 14:08:32.731, 1552914512731
92, 33448.36, 52194.09, -42236.93, -14688.65, -37446.26, -26831.17, -8254.05, -44855.05, 0.000, 0.000, 0.000, 14:08:32.731, 1552914512731
93, 33371.60, 51918.61, -42254.77, -14658.88, -37430.32, -26752.38, -8227.21, -44838.43, 0.000, 0.000, 0.000, 14:08:32.731, 1552914512731
94, 33378.86, 51866.75, -42225.57, -14634.76, -37398.07, -26730.54, -8208.50, -44822.93, 0.000, 0.000, 0.000, 14:08:32.732, 1552914512732
95, 33392.97, 52009.73, -42214.55, -14686.93, -37401.64, -26760.76, -8257.11, -44847.90, 0.000, 0.000, 0.000, 14:08:32.732, 1552914512732
