%OpenBCI Raw EEG Data
%
%Sample Rate = 250.0 Hz
%First Column = SampleIndex
%Last Column = Timestamp 
%Other Columns = EEG data in microvolts followed by Accel Data (in G) interleaved with Aux Data
0, 0.00, 0.00, 0.00, 0.00, 0.00, 0.00, 0.00, 0.00, 0.000, 0.000, 0.000, 22:04:05.624
1, 60488.58, 55758.19, -19472.30, 23349.79, 8452.22, 38943.36, 8960.79, 3579.97, 0.002, 0.916, 0.456, 22:04:06.116
2, 60525.97, 55747.04, -19443.58, 23375.12, 8455.24, 38930.39, 8979.61, 3591.55, 0.000, 0.000, 0.000, 22:04:06.116
3, 60550.29, 55740.38, -19419.24, 23400.58, 8492.01, 38965.17, 8998.99, 3611.26, 0.000, 0.000, 0.000, 22:04:06.116
4, 60509.34, 55737.78, -19437.90, 23383.75, 8501.06, 38995.84, 8980.06, 3594.25, 0.000, 0.000, 0.000, 22:04:06.117
5, 60493.47, 55717.18, -19469.69, 23352.07, 8460.38, 38964.12, 8943.22, 3552.27, 0.000, 0.000, 0.000, 22:04:06.117
6, 60505.07, 55717.46, -19475.54, 23346.24, 8437.34, 38926.59, 8935.80, 3535.78, 0.000, 0.000, 0.000, 22:04:06.117
7, 60531.92, 55749.52, -19451.87, 23370.16, 8436.93, 38916.24, 8956.34, 3557.12, 0.000, 0.000, 0.000, 22:04:06.118
8, 60540.23, 55760.36, -19430.55, 23393.78, 8468.99, 38952.05, 8980.01, 3586.72, 0.008, 0.916, 0.458, 22:04:06.118
9, 60536.66, 55757.43, -19448.83, 23378.00, 8486.08, 38984.08, 8963.09, 3576.57, 0.000, 0.000, 0.000, 22:04:06.118
10, 60488.82, 55716.30, -19472.82, 23355.45, 8461.23, 38964.10, 8942.06, 3553.30, 0.000, 0.000, 0.000, 22:04:06.118
11, 60461.82, 55713.55, -19464.93, 23363.25, 8448.38, 38947.54, 8960.90, 3565.64, 0.000, 0.000, 0.000, 22:04:06.119
12, 60488.27, 55736.89, -19440.27, 23387.70, 8449.61, 38935.96, 8986.32, 3587.86, 0.000, 0.000, 0.000, 22:04:06.119
13, 60512.05, 55755.31, -19429.59, 23398.63, 8473.57, 38954.93, 8996.08, 3597.22, 0.000, 0.000, 0.000, 22:04:06.119
14, 60509.81, 55725.45, -19455.94, 23373.64, 8481.73, 38983.48, 8974.25, 3579.94, 0.000, 0.000, 0.000, 22:04:06.119
15, 60498.01, 55723.75, -19481.47, 23351.72, 8454.64, 38961.57, 8948.88, 3556.68, 0.000, 0.000, 0.000, 22:04:06.119
16, 60509.93, 55730.03, -19471.63, 23364.14, 8442.66, 38943.58, 8956.25, 3573.31, 0.000, 0.000, 0.000, 22:04:06.119
17, 60537.42, 55748.02, -19448.54, 23383.93, 8444.96, 38933.16, 8976.13, 3590.16, 0.000, 0.000, 0.000, 22:04:06.119
18, 60551.19, 55751.71, -19433.97, 23395.03, 8470.55, 38954.02, 8990.90, 3598.32, 0.010, 0.906, 0.466, 22:04:06.119
19, 60525.37, 55758.64, -19450.31, 23378.34, 8495.00, 38990.40, 8983.61, 3592.77, 0.000, 0.000, 0.000, 22:04:06.119
20, 60517.17, 55716.23, -19473.82, 23353.46, 8472.34, 38973.19, 8960.37, 3570.33, 0.000, 0.000, 0.000, 22:04:06.120
21, 60486.25, 55697.41, -19475.14, 23353.28, 8443.89, 38944.92, 8949.84, 3560.72, 0.000, 0.000, 0.000, 22:04:06.120
22, 60491.89, 55719.45, -19452.97, 23380.93, 8439.86, 38931.29, 8964.61, 3574.80, 0.000, 0.000, 0.000, 22:04:06.120
23, 60503.80, 55741.54, -19428.61, 23406.97, 8472.74, 38960.56, 8989.67, 3598.32, 0.000, 0.000, 0.000, 22:04:06.120
24, 60495.40, 55737.96, -19453.19, 23385.85, 8485.08, 38990.61, 8972.10, 3585.98, 0.000, 0.000, 0.000, 22:04:06.120
25, 60484.27, 55718.85, -19480.64, 23359.99, 8453.68, 38967.89, 8946.44, 3563.56, 0.000, 0.000, 0.000, 22:04:06.120
26, 60497.65, 55724.39, -19473.78, 23362.00, 8436.46, 38943.73, 8948.07, 3564.01, 0.000, 0.000, 0.000, 22:04:06.121
27, 60531.85, 55763.44, -19446.84, 23382.79, 8438.10, 38930.01, 8970.51, 3575.81, 0.012, 0.908, 0.470, 22:04:06.121
28, 60559.64, 55778.17, -19421.50, 23404.11, 8470.62, 38954.39, 8995.59, 3598.94, 0.000, 0.000, 0.000, 22:04:06.121
29, 60552.01, 55773.75, -19443.47, 23386.74, 8486.62, 38988.93, 8978.00, 3585.96, 0.000, 0.000, 0.000, 22:04:06.121
30, 60532.77, 55736.06, -19473.15, 23359.65, 8459.64, 38966.67, 8949.75, 3554.35, 0.000, 0.000, 0.000, 22:04:06.122
31, 60509.72, 55727.23, -19471.81, 23360.01, 8443.48, 38944.58, 8949.77, 3554.58, 0.000, 0.000, 0.000, 22:04:06.122
32, 60528.70, 55734.65, -19450.93, 23380.26, 8443.35, 38930.10, 8966.76, 3579.54, 0.000, 0.000, 0.000, 22:04:06.122
33, 60529.04, 55752.29, -19426.73, 23401.70, 8477.19, 38959.52, 8992.33, 3603.91, 0.000, 0.000, 0.000, 22:04:06.122
34, 60492.63, 55723.48, -19443.13, 23383.72, 8498.29, 38993.20, 8978.63, 3581.80, 0.000, 0.000, 0.000, 22:04:06.122
35, 60489.16, 55694.69, -19476.01, 23352.19, 8461.52, 38962.22, 8948.10, 3544.90, 0.000, 0.000, 0.000, 22:04:06.122
36, 60494.95, 55703.88, -19472.53, 23357.26, 8445.74, 38940.52, 8958.36, 3564.95, 0.000, 0.000, 0.000, 22:04:06.123
37, 60494.21, 55730.72, -19447.89, 23380.35, 8446.03, 38928.07, 8977.71, 3590.41, 0.010, 0.910, 0.462, 22:04:06.123
38, 60506.04, 55759.55, -19417.65, 23409.61, 8481.59, 38958.38, 9006.55, 3616.89, 0.000, 0.000, 0.000, 22:04:06.123
39, 60514.38, 55760.20, -19439.29, 23391.30, 8498.63, 38993.60, 8987.77, 3598.09, 0.000, 0.000, 0.000, 22:04:06.123
40, 60513.19, 55735.91, -19472.17, 23361.39, 8463.91, 38972.43, 8954.64, 3567.58, 0.000, 0.000, 0.000, 22:04:06.123
41, 60508.38, 55722.81, -19465.64, 23364.03, 8448.13, 38951.85, 8955.87, 3572.39, 0.000, 0.000, 0.000, 22:04:06.123
42, 60534.13, 55734.81, -19440.45, 23385.62, 8450.70, 38931.35, 8973.93, 3586.14, 0.000, 0.000, 0.000, 22:04:06.123
43, 60557.00, 55748.36, -19413.90, 23415.60, 8488.34, 38958.15, 9003.93, 3612.87, 0.000, 0.000, 0.000, 22:04:06.123
44, 60584.58, 55747.02, -19439.15, 23395.08, 8503.81, 38992.33, 8983.05, 3600.84, 0.000, 0.000, 0.000, 22:04:06.123
45, 60545.53, 55747.55, -19472.28, 23365.71, 8472.09, 38965.46, 8948.54, 3561.88, 0.000, 0.000, 0.000, 22:04:06.123
46, 60478.14, 55744.71, -19476.50, 23364.12, 8446.86, 38938.14, 8937.97, 3546.35, 0.000, 0.000, 0.000, 22:04:06.123
47, 60504.07, 55739.41, -19464.39, 23370.98, 8436.20, 38917.54, 8944.41, 3560.95, 0.014, 0.918, 0.468, 22:04:06.123
48, 60522.53, 55745.79, -19439.00, 23388.35, 8465.90, 38944.89, 8968.26, 3589.89, 0.000, 0.000, 0.000, 22:04:06.123
49, 60540.08, 55745.41, -19440.47, 23379.10, 8498.83, 38990.54, 8976.68, 3593.02, 0.000, 0.000, 0.000, 22:04:06.123
50, 60506.80, 55722.99, -19461.42, 23351.47, 8474.80, 38972.63, 8951.16, 3566.20, 0.000, 0.000, 0.000, 22:04:06.123
51, 60499.00, 55729.85, -19461.57, 23344.27, 8456.49, 38943.13, 8949.62, 3557.44, 0.000, 0.000, 0.000, 22:04:06.123
52, 60509.57, 55746.66, -19441.37, 23357.53, 8454.84, 38929.90, 8967.12, 3568.75, 0.000, 0.000, 0.000, 22:04:06.123
53, 60524.45, 55766.01, -19415.15, 23380.08, 8487.27, 38955.91, 8996.13, 3599.84, 0.000, 0.000, 0.000, 22:04:06.123
54, 60549.64, 55760.58, -19433.90, 23361.89, 8508.15, 38994.36, 8986.16, 3604.53, 0.000, 0.000, 0.000, 22:04:06.124
55, 60536.25, 55741.80, -19461.75, 23333.81, 8483.69, 38975.90, 8963.54, 3579.72, 0.000, 0.000, 0.000, 22:04:06.124
56, 60526.60, 55757.59, -19464.14, 23331.55, 8463.35, 38948.96, 8959.09, 3578.56, 0.000, 0.000, 0.000, 22:04:06.124
57, 60549.78, 55782.89, -19444.83, 23350.64, 8461.01, 38933.41, 8972.59, 3585.47, 0.016, 0.906, 0.464, 22:04:06.124
58, 60563.57, 55798.09, -19423.80, 23372.01, 8490.53, 38958.82, 8994.88, 3605.98, 0.000, 0.000, 0.000, 22:04:06.124
59, 60570.83, 55786.42, -19444.54, 23352.50, 8504.75, 38990.96, 8978.61, 3597.47, 0.000, 0.000, 0.000, 22:04:06.124
60, 60579.39, 55768.79, -19473.96, 23324.20, 8475.87, 38972.90, 8949.84, 3575.97, 0.000, 0.000, 0.000, 22:04:06.124
61, 60541.29, 55748.07, -19477.15, 23321.21, 8454.61, 38946.08, 8945.26, 3567.96, 0.000, 0.000, 0.000, 22:04:06.124
62, 60512.81, 55777.99, -19450.40, 23347.04, 8457.70, 38933.99, 8968.10, 3588.91, 0.000, 0.000, 0.000, 22:04:06.124
63, 60518.62, 55791.27, -19422.79, 23371.90, 8495.05, 38960.81, 8999.19, 3619.02, 0.000, 0.000, 0.000, 22:04:06.124
64, 60539.72, 55768.88, -19440.36, 23351.56, 8518.72, 38994.43, 8988.89, 3605.65, 0.000, 0.000, 0.000, 22:04:06.126
65, 60540.14, 55744.02, -19478.85, 23314.19, 8485.71, 38968.07, 8946.64, 3562.78, 0.000, 0.000, 0.000, 22:04:06.126
66, 60538.20, 55749.25, -19480.06, 23316.20, 8463.42, 38945.36, 8940.09, 3565.24, 0.000, 0.000, 0.000, 22:04:06.126
67, 60548.82, 55766.21, -19458.24, 23338.01, 8463.06, 38932.49, 8961.24, 3585.02, 0.010, 0.908, 0.464, 22:04:06.126
68, 60560.29, 55780.16, -19432.14, 23366.42, 8492.41, 38952.56, 8990.63, 3606.43, 0.000, 0.000, 0.000, 22:04:06.126
69, 60561.29, 55798.82, -19452.37, 23351.87, 8512.73, 38993.04, 8973.69, 3593.85, 0.000, 0.000, 0.000, 22:04:06.126
70, 60530.98, 55780.54, -19495.57, 23312.20, 8475.80, 38965.86, 8931.15, 3551.83, 0.000, 0.000, 0.000, 22:04:06.126
71, 60539.05, 55743.50, -19494.79, 23310.10, 8455.17, 38936.54, 8932.90, 3546.73, 0.000, 0.000, 0.000, 22:04:06.129
72, 60541.17, 55748.69, -19469.06, 23333.39, 8453.65, 38923.28, 8952.79, 3569.48, 0.000, 0.000, 0.000, 22:04:06.129
73, 60534.42, 55769.37, -19439.27, 23360.97, 8481.15, 38948.79, 8980.28, 3596.28, 0.000, 0.000, 0.000, 22:04:06.129
74, 60546.61, 55767.13, -19452.99, 23347.45, 8502.56, 38990.76, 8972.64, 3591.99, 0.000, 0.000, 0.000, 22:04:06.129
75, 60532.90, 55744.51, -19483.95, 23317.74, 8475.20, 38973.95, 8944.01, 3570.00, 0.000, 0.000, 0.000, 22:04:06.129
76, 60534.31, 55730.36, -19488.08, 23313.81, 8451.04, 38935.31, 8935.80, 3555.78, 0.000, 0.000, 0.000, 22:04:06.129
77, 60552.48, 55753.99, -19473.31, 23325.45, 8441.18, 38906.85, 8944.45, 3558.33, 0.010, 0.902, 0.464, 22:04:06.129
78, 60594.21, 55786.15, -19442.91, 23355.25, 8471.98, 38935.53, 8973.31, 3590.36, 0.000, 0.000, 0.000, 22:04:06.129
79, 60565.02, 55795.90, -19459.14, 23340.50, 8491.56, 38977.53, 8963.74, 3582.29, 0.000, 0.000, 0.000, 22:04:06.129
80, 60507.15, 55771.42, -19490.63, 23310.90, 8466.15, 38958.89, 8936.47, 3555.92, 0.000, 0.000, 0.000, 22:04:06.129
81, 60496.31, 55749.47, -19493.20, 23310.28, 8444.22, 38928.69, 8931.49, 3553.77, 0.000, 0.000, 0.000, 22:04:06.130
82, 60520.52, 55762.53, -19473.64, 23328.72, 8441.61, 38907.55, 8947.07, 3560.68, 0.000, 0.000, 0.000, 22:04:06.130
83, 60556.11, 55779.07, -19446.60, 23350.82, 8472.27, 38926.25, 8975.57, 3587.25, 0.000, 0.000, 0.000, 22:04:06.130
84, 60582.59, 55777.01, -19464.70, 23334.17, 8494.13, 38967.67, 8961.33, 3591.55, 0.000, 0.000, 0.000, 22:04:06.130
85, 60530.29, 55757.12, -19492.22, 23308.80, 8470.89, 38952.23, 8937.01, 3564.50, 0.000, 0.000, 0.000, 22:04:06.130
86, 60513.81, 55748.16, -19491.70, 23305.56, 8450.70, 38927.04, 8941.10, 3562.69, 0.000, 0.000, 0.000, 22:04:06.130
87, 60521.05, 55776.68, -19468.14, 23325.88, 8450.59, 38913.47, 8961.31, 3578.80, 0.012, 0.902, 0.458, 22:04:06.130
88, 60518.26, 55784.95, -19443.89, 23350.44, 8475.94, 38932.45, 8981.22, 3597.42, 0.000, 0.000, 0.000, 22:04:06.130
89, 60539.05, 55783.45, -19462.24, 23332.45, 8492.88, 38965.32, 8972.28, 3589.80, 0.000, 0.000, 0.000, 22:04:06.130
90, 60561.94, 55785.95, -19492.31, 23301.71, 8463.17, 38950.13, 8942.20, 3561.17, 0.000, 0.000, 0.000, 22:04:06.132
91, 60536.12, 55773.61, -19489.13, 23306.92, 8443.93, 38931.75, 8941.08, 3556.97, 0.000, 0.000, 0.000, 22:04:06.132
92, 60515.40, 55755.26, -19471.90, 23324.47, 8442.41, 38911.08, 8958.42, 3563.07, 0.000, 0.000, 0.000, 22:04:06.132
93, 60521.41, 55768.41, -19446.89, 23347.85, 8469.66, 38931.15, 8982.41, 3595.43, 0.000, 0.000, 0.000, 22:04:06.132
94, 60536.41, 55767.71, -19458.65, 23338.01, 8492.88, 38976.61, 8974.52, 3605.25, 0.000, 0.000, 0.000, 22:04:06.132
95, 60547.25, 55755.60, -19489.33, 23310.37, 8467.42, 38959.40, 8942.80, 3574.18, 0.000, 0.000, 0.000, 22:04:06.133
96, 60539.00, 55744.49, -19499.59, 23302.54, 8436.84, 38925.00, 8929.03, 3554.73, 0.010, 0.906, 0.462, 22:04:06.133
97, 60544.41, 55775.76, -19468.73, 23331.82, 8440.64, 38914.48, 8961.19, 3576.82, 0.000, 0.000, 0.000, 22:04:06.133
98, 60589.90, 55811.77, -19441.23, 23356.83, 8468.16, 38934.30, 8984.42, 3599.55, 0.000, 0.000, 0.000, 22:04:06.133
99, 60616.99, 55812.28, -19453.46, 23344.99, 8490.82, 38972.81, 8972.37, 3590.92, 0.000, 0.000, 0.000, 22:04:06.133
100, 60557.00, 55778.17, -19480.01, 23318.68, 8471.11, 38961.19, 8944.41, 3561.39, 0.000, 0.000, 0.000, 22:04:06.133
101, 60518.06, 55756.18, -19482.72, 23317.21, 8449.12, 38937.70, 8936.85, 3562.35, 0.000, 0.000, 0.000, 22:04:06.133
102, 60526.18, 55767.73, -19458.62, 23339.31, 8447.91, 38925.14, 8954.24, 3584.39, 0.000, 0.000, 0.000, 22:04:06.133
103, 60534.02, 55799.88, -19425.65, 23370.34, 8483.81, 38946.89, 8987.79, 3611.80, 0.000, 0.000, 0.000, 22:04:06.133
104, 60552.86, 55799.27, -19438.46, 23359.20, 8509.04, 38986.89, 8980.82, 3608.51, 0.000, 0.000, 0.000, 22:04:06.133
105, 60562.72, 55765.50, -19478.03, 23320.60, 8474.26, 38967.23, 8946.00, 3578.27, 0.000, 0.000, 0.000, 22:04:06.133
106, 60547.75, 55766.35, -19484.55, 23313.12, 8444.29, 38941.01, 8940.56, 3571.63, 0.008, 0.906, 0.462, 22:04:06.133
107, 60540.26, 55770.35, -19460.77, 23333.19, 8439.93, 38923.95, 8957.17, 3582.67, 0.000, 0.000, 0.000, 22:04:06.133
108, 60550.38, 55803.59, -19433.08, 23362.51, 8466.82, 38945.68, 8984.26, 3609.56, 0.000, 0.000, 0.000, 22:04:06.133
109, 60554.47, 55801.93, -19451.09, 23348.70, 8488.10, 38980.57, 8975.14, 3605.90, 0.000, 0.000, 0.000, 22:04:06.133
110, 60534.94, 55772.09, -19482.56, 23318.21, 8463.17, 38964.99, 8944.70, 3570.38, 0.000, 0.000, 0.000, 22:04:06.133
111, 60539.77, 55764.80, -19489.25, 23312.94, 8436.35, 38934.17, 8934.53, 3557.57, 0.000, 0.000, 0.000, 22:04:06.134
112, 60590.17, 55786.46, -19466.16, 23336.63, 8438.54, 38924.91, 8959.99, 3585.87, 0.000, 0.000, 0.000, 22:04:06.134
113, 60599.46, 55807.57, -19440.12, 23358.89, 8467.02, 38937.92, 8985.29, 3607.64, 0.000, 0.000, 0.000, 22:04:06.134
114, 60600.56, 55812.04, -19455.67, 23340.72, 8492.01, 38969.37, 8968.70, 3591.10, 0.000, 0.000, 0.000, 22:04:06.134
115, 60537.11, 55766.28, -19483.14, 23313.61, 8465.14, 38957.48, 8940.05, 3565.15, 0.000, 0.000, 0.000, 22:04:06.134
116, 60493.43, 55725.96, -19478.70, 23321.68, 8447.62, 38944.58, 8946.55, 3576.52, 0.006, 0.906, 0.468, 22:04:06.138
117, 60496.20, 55743.33, -19455.76, 23342.78, 8450.46, 38932.22, 8968.77, 3594.54, 0.000, 0.000, 0.000, 22:04:06.139
118, 60535.18, 55786.73, -19430.42, 23368.44, 8478.35, 38950.24, 8995.08, 3621.41, 0.000, 0.000, 0.000, 22:04:06.139
119, 60551.93, 55802.78, -19447.13, 23355.67, 8501.66, 38990.14, 8989.96, 3610.79, 0.000, 0.000, 0.000, 22:04:06.140
120, 60531.00, 55773.16, -19478.23, 23325.32, 8480.09, 38977.51, 8964.21, 3586.87, 0.000, 0.000, 0.000, 22:04:06.140
121, 60527.05, 55737.45, -19476.06, 23327.24, 8462.33, 38962.46, 8964.05, 3596.02, 0.000, 0.000, 0.000, 22:04:06.604
122, 60539.79, 55733.65, -19458.24, 23344.52, 8459.51, 38945.57, 8977.35, 3609.23, 0.000, 0.000, 0.000, 22:04:06.604
123, 60534.18, 55741.92, -19428.31, 23373.42, 8487.85, 38965.37, 9009.07, 3637.03, 0.000, 0.000, 0.000, 22:04:06.605
124, 60524.86, 55730.30, -19446.75, 23361.42, 8507.50, 39006.99, 8995.66, 3626.48, 0.000, 0.000, 0.000, 22:04:06.606
125, 60471.14, 55712.14, -19478.67, 23337.21, 8482.46, 38994.29, 8964.01, 3598.59, 0.000, 0.000, 0.000, 22:04:06.606
126, 60448.82, 55717.78, -19483.99, 23334.53, 8460.05, 38968.54, 8955.61, 3589.53, 0.008, 0.904, 0.474, 22:04:06.606
127, 60494.41, 55740.84, -19457.93, 23357.30, 8463.98, 38953.52, 8976.93, 3601.09, 0.000, 0.000, 0.000, 22:04:06.606
128, 60547.61, 55759.64, -19423.93, 23385.67, 8496.08, 38968.41, 9005.00, 3619.84, 0.000, 0.000, 0.000, 22:04:06.606
129, 60559.84, 55760.02, -19436.83, 23373.67, 8517.94, 39012.55, 8998.12, 3615.04, 0.000, 0.000, 0.000, 22:04:06.607
130, 60536.14, 55714.54, -19474.54, 23338.48, 8482.98, 38997.60, 8959.92, 3590.83, 0.000, 0.000, 0.000, 22:04:06.607
131, 60486.46, 55699.09, -19472.41, 23341.26, 8464.29, 38973.42, 8963.03, 3598.92, 0.000, 0.000, 0.000, 22:04:06.607
132, 60501.66, 55713.60, -19452.07, 23364.46, 8460.98, 38961.53, 8975.79, 3613.47, 0.000, 0.000, 0.000, 22:04:06.607
133, 60512.12, 55747.44, -19424.27, 23389.60, 8485.91, 38976.21, 9000.78, 3634.24, 0.000, 0.000, 0.000, 22:04:06.607
134, 60518.33, 55752.00, -19437.59, 23375.83, 8512.08, 39013.14, 8992.46, 3624.87, 0.000, 0.000, 0.000, 22:04:06.607
135, 60505.39, 55734.36, -19470.83, 23345.90, 8488.66, 39000.29, 8961.55, 3591.17, 0.000, 0.000, 0.000, 22:04:06.608
136, 60489.77, 55732.89, -19478.99, 23337.30, 8464.67, 38970.24, 8953.17, 3578.27, 0.008, 0.906, 0.474, 22:04:06.608
137, 60519.89, 55755.06, -19464.50, 23348.65, 8456.51, 38950.48, 8963.07, 3590.43, 0.000, 0.000, 0.000, 22:04:06.608
138, 60565.80, 55777.41, -19436.50, 23372.28, 8482.78, 38967.43, 8994.34, 3621.23, 0.000, 0.000, 0.000, 22:04:06.608
139, 60547.43, 55762.82, -19451.72, 23356.41, 8505.20, 39002.16, 8983.97, 3612.38, 0.000, 0.000, 0.000, 22:04:06.608
140, 60521.23, 55737.65, -19477.85, 23330.82, 8486.53, 38994.76, 8959.03, 3588.13, 0.000, 0.000, 0.000, 22:04:06.609
141, 60515.31, 55718.72, -19481.60, 23324.58, 8463.71, 38969.95, 8949.21, 3578.09, 0.000, 0.000, 0.000, 22:04:06.609
142, 60488.18, 55720.13, -19460.79, 23338.64, 8458.10, 38945.30, 8963.61, 3589.98, 0.000, 0.000, 0.000, 22:04:06.609
143, 60484.55, 55738.52, -19433.28, 23366.04, 8485.12, 38956.83, 9000.06, 3617.25, 0.000, 0.000, 0.000, 22:04:06.610
144, 60503.11, 55744.58, -19442.33, 23360.14, 8511.90, 39001.09, 8996.11, 3615.48, 0.000, 0.000, 0.000, 22:04:06.610
145, 60508.63, 55734.14, -19475.01, 23327.62, 8488.28, 38991.36, 8964.26, 3586.76, 0.000, 0.000, 0.000, 22:04:06.613
146, 60514.33, 55724.08, -19488.91, 23310.63, 8454.28, 38957.32, 8945.03, 3569.28, 0.004, 0.906, 0.474, 22:04:06.613
147, 60515.89, 55739.08, -19467.97, 23327.38, 8448.33, 38936.18, 8956.17, 3575.92, 0.000, 0.000, 0.000, 22:04:06.613
148, 60542.85, 55752.02, -19437.79, 23357.79, 8474.98, 38950.35, 8985.42, 3600.31, 0.000, 0.000, 0.000, 22:04:06.614
149, 60566.95, 55746.34, -19457.01, 23339.94, 8493.30, 38984.17, 8965.71, 3579.36, 0.000, 0.000, 0.000, 22:04:06.614
150, 60534.38, 55726.59, -19490.88, 23306.25, 8466.71, 38966.78, 8930.84, 3549.10, 0.000, 0.000, 0.000, 22:04:06.614
151, 60497.77, 55714.71, -19500.27, 23296.98, 8440.78, 38937.25, 8921.99, 3550.33, 0.000, 0.000, 0.000, 22:04:06.614
152, 60492.00, 55731.08, -19477.29, 23318.59, 8442.10, 38922.72, 8939.89, 3572.21, 0.000, 0.000, 0.000, 22:04:06.615
153, 60489.43, 55738.95, -19444.59, 23351.94, 8463.85, 38940.20, 8967.88, 3596.60, 0.000, 0.000, 0.000, 22:04:06.615
154, 60501.41, 55733.85, -19460.30, 23337.25, 8481.57, 38976.08, 8961.69, 3588.04, 0.000, 0.000, 0.000, 22:04:06.617
155, 60469.69, 55705.80, -19498.03, 23302.99, 8455.62, 38964.86, 8933.17, 3566.58, 0.000, 0.000, 0.000, 22:04:06.618
156, 60471.12, 55694.69, -19501.07, 23301.65, 8431.70, 38940.56, 8926.57, 3560.77, 0.008, 0.906, 0.468, 22:04:06.618
157, 60495.24, 55712.97, -19479.39, 23321.38, 8429.13, 38924.91, 8944.70, 3575.68, 0.000, 0.000, 0.000, 22:04:06.618
158, 60529.35, 55744.82, -19444.61, 23356.74, 8458.28, 38945.14, 8980.06, 3615.35, 0.000, 0.000, 0.000, 22:04:06.618
159, 60534.80, 55735.88, -19451.61, 23348.47, 8486.85, 38990.40, 8979.39, 3619.19, 0.000, 0.000, 0.000, 22:04:06.618
160, 60523.14, 55718.65, -19485.09, 23313.20, 8464.67, 38977.11, 8948.52, 3585.00, 0.000, 0.000, 0.000, 22:04:06.619
161, 60529.73, 55724.37, -19489.02, 23310.34, 8441.00, 38949.50, 8944.36, 3577.42, 0.000, 0.000, 0.000, 22:04:06.619
162, 60529.59, 55746.16, -19466.85, 23330.64, 8438.07, 38932.91, 8963.25, 3585.20, 0.000, 0.000, 0.000, 22:04:06.619
163, 60543.70, 55758.97, -19437.68, 23358.35, 8463.22, 38947.27, 8991.37, 3603.44, 0.000, 0.000, 0.000, 22:04:06.619
164, 60514.64, 55738.07, -19452.54, 23347.00, 8488.59, 38990.23, 8977.98, 3598.14, 0.000, 0.000, 0.000, 22:04:06.619
165, 60507.00, 55714.92, -19483.57, 23315.35, 8469.59, 38975.76, 8946.13, 3577.15, 0.010, 0.904, 0.474, 22:04:06.620
166, 60481.88, 55687.43, -19493.04, 23302.88, 8441.34, 38940.49, 8937.64, 3557.12, 0.000, 0.000, 0.000, 22:04:06.620
167, 60486.81, 55703.03, -19479.70, 23313.92, 8426.32, 38915.21, 8948.27, 3556.30, 0.000, 0.000, 0.000, 22:04:06.620
168, 60519.20, 55738.90, -19451.22, 23343.85, 8450.05, 38927.95, 8977.62, 3589.13, 0.000, 0.000, 0.000, 22:04:06.620
169, 60513.59, 55738.41, -19451.07, 23347.07, 8486.22, 38981.17, 8979.92, 3607.17, 0.000, 0.000, 0.000, 22:04:06.620
170, 60510.98, 55716.68, -19485.51, 23311.59, 8464.25, 38969.19, 8943.65, 3570.40, 0.000, 0.000, 0.000, 22:04:06.621
171, 60523.45, 55705.15, -19483.34, 23314.68, 8448.04, 38949.43, 8940.67, 3564.79, 0.000, 0.000, 0.000, 22:04:06.621
172, 60524.99, 55723.93, -19465.11, 23333.59, 8443.08, 38929.52, 8952.70, 3568.99, 0.000, 0.000, 0.000, 22:04:06.621
173, 60511.60, 55732.04, -19434.51, 23363.00, 8462.82, 38944.14, 8985.18, 3601.07, 0.000, 0.000, 0.000, 22:04:06.622
174, 60512.77, 55720.30, -19442.42, 23355.52, 8489.93, 38993.76, 8983.90, 3609.52, 0.000, 0.000, 0.000, 22:04:06.622
175, 60493.45, 55713.80, -19477.38, 23323.96, 8467.87, 38981.33, 8953.84, 3576.57, 0.006, 0.906, 0.474, 22:04:06.622
176, 60488.31, 55708.46, -19483.43, 23321.59, 8443.64, 38954.15, 8944.74, 3569.77, 0.000, 0.000, 0.000, 22:04:06.622
177, 60490.48, 55721.82, -19470.31, 23334.35, 8433.07, 38932.47, 8952.68, 3580.48, 0.000, 0.000, 0.000, 22:04:06.623
178, 60509.95, 55752.31, -19449.41, 23356.59, 8447.10, 38939.17, 8970.63, 3596.86, 0.000, 0.000, 0.000, 22:04:06.623
179, 60537.30, 55742.43, -19453.68, 23354.04, 8479.27, 38983.54, 8968.55, 3596.04, 0.000, 0.000, 0.000, 22:04:06.623
180, 60515.49, 55708.28, -19489.18, 23321.59, 8457.16, 38971.70, 8933.14, 3563.99, 0.000, 0.000, 0.000, 22:04:06.623
181, 60521.50, 55697.30, -19500.49, 23311.73, 8424.89, 38937.12, 8924.29, 3554.58, 0.000, 0.000, 0.000, 22:04:06.624
182, 60521.01, 55710.69, -19481.82, 23326.26, 8419.19, 38914.97, 8938.08, 3561.59, 0.000, 0.000, 0.000, 22:04:06.624
183, 60505.84, 55734.34, -19447.60, 23353.95, 8446.21, 38929.99, 8971.27, 3587.37, 0.000, 0.000, 0.000, 22:04:06.624
184, 60519.69, 55735.68, -19446.93, 23350.29, 8478.28, 38975.56, 8971.03, 3589.13, 0.000, 0.000, 0.000, 22:04:06.624
185, 60508.11, 55715.36, -19471.59, 23325.12, 8462.79, 38973.30, 8943.58, 3567.56, 0.008, 0.908, 0.476, 22:04:06.624
186, 60532.25, 55720.30, -19479.57, 23318.14, 8435.91, 38945.32, 8933.54, 3560.99, 0.000, 0.000, 0.000, 22:04:06.625
187, 60543.12, 55736.02, -19458.58, 23338.75, 8430.99, 38928.67, 8946.08, 3582.83, 0.000, 0.000, 0.000, 22:04:06.625
188, 60516.05, 55752.82, -19424.80, 23369.44, 8457.09, 38941.97, 8978.34, 3612.02, 0.000, 0.000, 0.000, 22:04:06.625
189, 60540.77, 55754.75, -19428.09, 23367.99, 8487.27, 38988.35, 8981.24, 3613.16, 0.000, 0.000, 0.000, 22:04:06.625
190, 60555.12, 55749.36, -19463.34, 23331.55, 8467.20, 38976.88, 8951.49, 3579.27, 0.000, 0.000, 0.000, 22:04:06.625
191, 60551.61, 55751.73, -19469.73, 23321.43, 8440.38, 38949.07, 8940.45, 3564.14, 0.000, 0.000, 0.000, 22:04:06.625
192, 60557.73, 55765.68, -19447.54, 23340.23, 8438.86, 38933.68, 8959.76, 3579.61, 0.000, 0.000, 0.000, 22:04:06.626
193, 60537.38, 55780.41, -19416.29, 23368.37, 8460.22, 38940.71, 8987.14, 3601.13, 0.000, 0.000, 0.000, 22:04:06.626
194, 60537.21, 55761.23, -19416.58, 23372.12, 8493.24, 38988.62, 8987.73, 3605.07, 0.000, 0.000, 0.000, 22:04:06.626
195, 60532.50, 55745.85, -19453.04, 23340.25, 8471.67, 38982.74, 8953.35, 3573.86, 0.006, 0.908, 0.476, 22:04:06.626
196, 60532.14, 55758.46, -19461.93, 23332.70, 8441.65, 38955.76, 8939.89, 3565.19, 0.000, 0.000, 0.000, 22:04:06.626
197, 60560.62, 55780.07, -19439.18, 23351.72, 8438.12, 38939.53, 8956.61, 3585.96, 0.000, 0.000, 0.000, 22:04:06.626
198, 60544.57, 55754.61, -19412.80, 23377.89, 8457.12, 38943.44, 8979.86, 3605.40, 0.000, 0.000, 0.000, 22:04:06.627
199, 60537.21, 55736.29, -19424.09, 23370.29, 8484.07, 38982.85, 8972.21, 3600.89, 0.000, 0.000, 0.000, 22:04:06.627
200, 60516.03, 55717.46, -19459.56, 23335.31, 8464.34, 38973.59, 8937.77, 3570.89, 0.000, 0.000, 0.000, 22:04:06.627
201, 60531.72, 55718.65, -19463.09, 23333.57, 8443.75, 38945.12, 8930.57, 3558.44, 0.000, 0.000, 0.000, 22:04:06.627
202, 60573.40, 55751.13, -19450.73, 23345.73, 8437.81, 38922.90, 8938.51, 3569.44, 0.000, 0.000, 0.000, 22:04:06.628
203, 60543.34, 55781.32, -19422.41, 23373.87, 8462.24, 38929.65, 8969.53, 3595.99, 0.000, 0.000, 0.000, 22:04:06.628
204, 60542.92, 55773.77, -19420.33, 23379.81, 8507.59, 38983.61, 8984.02, 3607.53, 0.000, 0.000, 0.000, 22:04:06.629
205, 60546.16, 55740.58, -19450.69, 23348.01, 8492.34, 38982.80, 8955.07, 3579.88, 0.004, 0.906, 0.476, 22:04:06.629
206, 60519.43, 55731.46, -19462.33, 23333.75, 8460.60, 38954.77, 8945.10, 3568.19, 0.000, 0.000, 0.000, 22:04:06.638
207, 60517.35, 55757.74, -19449.53, 23340.16, 8450.55, 38934.01, 8955.29, 3578.27, 0.000, 0.000, 0.000, 22:04:06.638
208, 60538.78, 55768.18, -19422.93, 23363.41, 8470.04, 38942.19, 8982.07, 3601.60, 0.000, 0.000, 0.000, 22:04:06.638
209, 60557.11, 55766.66, -19425.72, 23359.32, 8504.24, 38987.95, 8986.97, 3604.49, 0.000, 0.000, 0.000, 22:04:06.639
210, 60563.30, 55757.27, -19460.70, 23324.02, 8484.30, 38981.75, 8953.39, 3575.85, 0.000, 0.000, 0.000, 22:04:06.639
211, 60555.21, 55767.78, -19472.48, 23311.13, 8452.78, 38953.10, 8935.91, 3565.42, 0.000, 0.000, 0.000, 22:04:06.639
212, 60555.68, 55772.47, -19452.99, 23328.52, 8448.31, 38939.62, 8952.07, 3576.57, 0.000, 0.000, 0.000, 22:04:06.639
213, 60581.09, 55771.38, -19425.88, 23352.74, 8468.18, 38949.41, 8981.22, 3611.55, 0.000, 0.000, 0.000, 22:04:06.639
214, 60592.76, 55777.46, -19438.06, 23340.94, 8496.39, 38990.63, 8979.12, 3614.79, 0.000, 0.000, 0.000, 22:04:06.639
215, 60584.58, 55760.25, -19477.55, 23300.53, 8474.95, 38981.55, 8946.15, 3581.58, 0.008, 0.900, 0.472, 22:04:06.639
216, 60558.16, 55753.27, -19484.37, 23294.23, 8450.21, 38957.52, 8937.48, 3565.42, 0.000, 0.000, 0.000, 22:04:06.639
217, 60533.57, 55763.31, -19463.23, 23312.78, 8448.94, 38941.23, 8956.23, 3582.83, 0.000, 0.000, 0.000, 22:04:06.639
218, 60542.02, 55752.42, -19432.99, 23339.33, 8467.69, 38949.84, 8982.85, 3615.69, 0.000, 0.000, 0.000, 22:04:06.640
219, 60531.16, 55746.88, -19442.33, 23331.00, 8496.10, 38994.79, 8982.85, 3625.52, 0.000, 0.000, 0.000, 22:04:06.640
220, 60527.80, 55731.70, -19476.48, 23298.54, 8481.41, 38989.33, 8956.75, 3604.58, 0.000, 0.000, 0.000, 22:04:06.640
221, 60525.21, 55724.77, -19483.17, 23291.30, 8458.53, 38964.50, 8950.71, 3595.81, 0.000, 0.000, 0.000, 22:04:06.640
222, 60522.18, 55741.88, -19469.75, 23301.87, 8449.27, 38943.64, 8962.13, 3604.22, 0.000, 0.000, 0.000, 22:04:06.640
223, 60556.55, 55777.19, -19434.24, 23335.64, 8477.03, 38955.20, 8998.16, 3634.64, 0.000, 0.000, 0.000, 22:04:06.640
224, 60573.43, 55782.33, -19439.29, 23330.73, 8509.49, 39000.46, 8999.37, 3638.28, 0.000, 0.000, 0.000, 22:04:06.640
225, 60547.10, 55754.35, -19475.90, 23292.77, 8490.49, 38989.91, 8965.46, 3606.63, 0.002, 0.900, 0.468, 22:04:06.640
226, 60521.82, 55731.21, -19485.11, 23285.58, 8464.74, 38960.12, 8958.83, 3594.56, 0.000, 0.000, 0.000, 22:04:06.640
227, 60517.52, 55729.85, -19469.33, 23299.77, 8457.30, 38942.57, 8970.11, 3603.57, 0.000, 0.000, 0.000, 22:04:06.640
228, 60533.98, 55752.54, -19438.39, 23331.71, 8481.66, 38954.06, 9002.05, 3631.58, 0.000, 0.000, 0.000, 22:04:06.640
229, 60554.54, 55752.65, -19446.91, 23327.58, 8513.51, 38997.11, 9001.70, 3635.56, 0.000, 0.000, 0.000, 22:04:06.642
230, 60531.72, 55718.72, -19485.38, 23291.70, 8497.10, 38988.55, 8968.53, 3606.74, 0.000, 0.000, 0.000, 22:04:06.642
231, 60457.44, 55668.94, -19502.70, 23275.27, 8464.99, 38955.98, 8948.39, 3585.24, 0.000, 0.000, 0.000, 22:04:06.642
232, 60441.55, 55662.35, -19494.05, 23283.57, 8449.03, 38934.12, 8945.66, 3583.39, 0.000, 0.000, 0.000, 22:04:06.642
233, 60451.25, 55662.32, -19471.30, 23306.01, 8460.96, 38937.57, 8968.39, 3607.68, 0.000, 0.000, 0.000, 22:04:06.663
234, 60465.73, 55643.17, -19477.18, 23302.36, 8492.34, 38980.57, 8977.71, 3617.16, 0.000, 0.000, 0.000, 22:04:06.664
235, 60438.91, 55602.15, -19508.33, 23274.76, 8478.33, 38977.66, 8957.44, 3585.98, 0.012, 0.908, 0.472, 22:04:06.664
236, 60369.85, 55545.54, -19520.85, 23265.01, 8449.58, 38950.68, 8945.12, 3570.60, 0.000, 0.000, 0.000, 22:04:06.665
237, 60334.33, 55522.94, -19508.13, 23274.51, 8442.25, 38927.77, 8957.33, 3589.35, 0.000, 0.000, 0.000, 22:04:06.665
238, 60328.99, 55519.70, -19487.35, 23290.70, 8450.97, 38925.20, 8974.31, 3610.92, 0.000, 0.000, 0.000, 22:04:06.665
239, 60323.51, 55497.84, -19495.75, 23287.19, 8477.90, 38963.96, 8970.96, 3608.49, 0.000, 0.000, 0.000, 22:04:06.666
240, 60291.53, 55471.57, -19529.99, 23259.09, 8462.01, 38961.55, 8935.53, 3579.77, 0.000, 0.000, 0.000, 22:04:06.666
241, 60302.68, 55451.14, -19539.65, 23256.12, 8433.38, 38936.92, 8921.79, 3570.42, 0.000, 0.000, 0.000, 22:04:07.079
242, 60297.02, 55473.86, -19523.22, 23274.02, 8425.58, 38919.73, 8934.13, 3582.81, 0.000, 0.000, 0.000, 22:04:07.079
243, 60285.65, 55472.98, -19488.51, 23306.81, 8448.02, 38932.29, 8965.91, 3611.39, 0.000, 0.000, 0.000, 22:04:07.079
244, 60252.99, 55432.21, -19491.14, 23305.89, 8482.11, 38973.26, 8964.90, 3611.80, 0.006, 0.908, 0.466, 22:04:07.080
245, 60205.79, 55397.03, -19528.32, 23264.79, 8463.17, 38957.50, 8926.93, 3571.43, 0.000, 0.000, 0.000, 22:04:07.080
246, 60193.54, 55379.75, -19540.52, 23249.52, 8432.89, 38924.42, 8910.99, 3551.51, 0.000, 0.000, 0.000, 22:04:07.081
247, 60205.72, 55395.96, -19524.70, 23262.02, 8424.04, 38907.95, 8919.87, 3558.17, 0.000, 0.000, 0.000, 22:04:07.081
248, 60220.14, 55415.72, -19490.36, 23295.01, 8442.12, 38913.89, 8950.00, 3586.85, 0.000, 0.000, 0.000, 22:04:07.082
249, 60237.66, 55410.75, -19487.93, 23297.94, 8480.65, 38959.83, 8956.10, 3593.58, 0.000, 0.000, 0.000, 22:04:07.082
250, 60243.76, 55428.73, -19526.42, 23260.81, 8464.49, 38957.48, 8923.17, 3561.44, 0.000, 0.000, 0.000, 22:04:07.083
251, 60208.09, 55400.38, -19542.11, 23246.06, 8432.33, 38930.25, 8906.41, 3544.18, 0.000, 0.000, 0.000, 22:04:07.083
252, 60221.92, 55354.94, -19521.70, 23265.75, 8427.59, 38916.93, 8922.28, 3555.92, 0.000, 0.000, 0.000, 22:04:07.083
253, 60242.78, 55362.54, -19494.25, 23292.97, 8442.08, 38925.72, 8949.86, 3593.51, 0.000, 0.000, 0.000, 22:04:07.084
254, 60203.01, 55376.91, -19494.70, 23296.87, 8479.36, 38973.59, 8958.00, 3603.95, 0.008, 0.908, 0.468, 22:04:07.084
255, 60170.02, 55353.51, -19530.19, 23264.12, 8463.98, 38969.68, 8926.30, 3568.70, 0.000, 0.000, 0.000, 22:04:07.084
0, 60178.79, 55338.54, -19544.63, 23251.74, 8434.34, 38939.38, 8911.66, 3551.02, 0.000, 0.000, 0.000, 22:04:07.084
1, 60194.21, 55358.14, -19525.46, 23271.03, 8428.89, 38922.79, 8928.81, 3564.83, 0.000, 0.000, 0.000, 22:04:07.084
2, 60207.57, 55388.87, -19492.31, 23305.07, 8450.17, 38932.78, 8960.99, 3594.34, 0.000, 0.000, 0.000, 22:04:07.085
3, 60219.04, 55388.76, -19495.50, 23302.50, 8486.02, 38974.80, 8965.04, 3603.53, 0.000, 0.000, 0.000, 22:04:07.085
4, 60204.60, 55361.02, -19534.06, 23262.15, 8472.56, 38968.36, 8933.50, 3573.89, 0.000, 0.000, 0.000, 22:04:07.085
5, 60191.01, 55340.32, -19548.88, 23249.79, 8443.04, 38945.25, 8923.91, 3568.32, 0.000, 0.000, 0.000, 22:04:07.085
6, 60220.36, 55349.04, -19534.44, 23262.31, 8433.56, 38928.87, 8935.51, 3581.26, 0.000, 0.000, 0.000, 22:04:07.086
7, 60208.31, 55385.70, -19498.97, 23294.74, 8457.01, 38938.75, 8971.03, 3611.01, 0.000, 0.000, 0.000, 22:04:07.086
8, 60221.63, 55392.72, -19500.64, 23295.01, 8490.91, 38983.52, 8971.16, 3617.65, 0.000, 0.908, 0.468, 22:04:07.086
9, 60183.43, 55347.07, -19534.48, 23260.10, 8474.89, 38976.46, 8937.12, 3587.50, 0.000, 0.000, 0.000, 22:04:07.086
10, 60153.28, 55314.51, -19544.97, 23248.16, 8445.49, 38946.75, 8922.46, 3569.15, 0.000, 0.000, 0.000, 22:04:07.086
11, 60165.48, 55337.64, -19524.40, 23264.83, 8440.13, 38932.94, 8936.32, 3580.28, 0.000, 0.000, 0.000, 22:04:07.087
12, 60226.59, 55353.69, -19496.62, 23289.80, 8457.52, 38938.32, 8966.31, 3601.31, 0.000, 0.000, 0.000, 22:04:07.087
13, 60211.82, 55357.47, -19499.66, 23288.42, 8494.80, 38978.67, 8970.20, 3603.41, 0.000, 0.000, 0.000, 22:04:07.087
14, 60154.98, 55334.67, -19532.27, 23256.56, 8477.95, 38974.13, 8940.56, 3576.61, 0.000, 0.000, 0.000, 22:04:07.087
15, 60140.63, 55319.11, -19544.63, 23245.41, 8443.64, 38945.19, 8922.15, 3562.76, 0.000, 0.000, 0.000, 22:04:07.087
16, 60173.04, 55333.44, -19529.97, 23257.48, 8437.36, 38928.91, 8933.66, 3571.21, 0.000, 0.000, 0.000, 22:04:07.088
17, 60206.14, 55355.01, -19500.13, 23285.62, 8452.33, 38934.52, 8967.18, 3601.25, 0.000, 0.000, 0.000, 22:04:07.088
18, 60188.64, 55354.59, -19498.88, 23287.63, 8488.95, 38980.68, 8981.40, 3620.04, 0.004, 0.910, 0.466, 22:04:07.088
19, 60202.30, 55372.60, -19527.78, 23259.18, 8482.84, 38983.88, 8954.85, 3596.98, 0.000, 0.000, 0.000, 22:04:07.088
20, 60202.59, 55368.80, -19537.03, 23247.89, 8455.58, 38955.04, 8935.53, 3580.77, 0.000, 0.000, 0.000, 22:04:07.089
21, 60201.32, 55346.92, -19522.82, 23258.35, 8441.43, 38930.81, 8937.84, 3578.31, 0.000, 0.000, 0.000, 22:04:07.089
22, 60175.83, 55357.49, -19488.20, 23289.49, 8455.31, 38932.29, 8967.54, 3602.52, 0.000, 0.000, 0.000, 22:04:07.089
23, 60158.89, 55358.14, -19486.05, 23289.87, 8488.72, 38973.53, 8975.97, 3615.24, 0.000, 0.000, 0.000, 22:04:07.089
24, 60169.08, 55346.47, -19522.10, 23254.62, 8475.31, 38972.39, 8946.06, 3583.19, 0.000, 0.000, 0.000, 22:04:07.090
25, 60178.07, 55351.61, -19532.23, 23246.24, 8449.50, 38949.39, 8933.61, 3571.18, 0.000, 0.000, 0.000, 22:04:07.090
26, 60201.63, 55336.86, -19524.40, 23251.76, 8441.27, 38926.63, 8945.55, 3579.25, 0.000, 0.000, 0.000, 22:04:07.091
27, 60217.48, 55360.35, -19495.26, 23277.51, 8453.63, 38924.46, 8970.76, 3612.87, 0.000, 0.000, 0.000, 22:04:07.091
28, 60213.14, 55371.06, -19494.39, 23284.86, 8487.54, 38968.68, 8976.64, 3620.33, 0.012, 0.904, 0.468, 22:04:07.091
29, 60187.28, 55361.83, -19529.54, 23252.99, 8472.29, 38964.25, 8942.91, 3582.76, 0.000, 0.000, 0.000, 22:04:07.092
30, 60183.25, 55360.82, -19536.47, 23243.78, 8444.58, 38938.82, 8931.67, 3566.98, 0.000, 0.000, 0.000, 22:04:07.092
31, 60169.62, 55354.23, -19520.78, 23254.11, 8432.33, 38920.22, 8940.83, 3584.24, 0.000, 0.000, 0.000, 22:04:07.092
32, 60174.36, 55366.32, -19494.54, 23277.69, 8441.09, 38917.38, 8963.34, 3606.99, 0.000, 0.000, 0.000, 22:04:07.095
33, 60196.44, 55383.80, -19485.74, 23288.71, 8480.32, 38965.97, 8978.54, 3619.93, 0.000, 0.000, 0.000, 22:04:07.095
34, 60194.68, 55373.65, -19520.89, 23256.59, 8469.97, 38968.84, 8947.00, 3588.95, 0.000, 0.000, 0.000, 22:04:07.096
35, 60194.45, 55363.91, -19534.31, 23243.42, 8441.83, 38942.75, 8935.80, 3575.54, 0.000, 0.000, 0.000, 22:04:07.096
36, 60187.95, 55371.89, -19520.13, 23256.45, 8434.90, 38924.29, 8948.39, 3584.75, 0.000, 0.000, 0.000, 22:04:07.096
37, 60202.70, 55400.05, -19488.91, 23284.28, 8451.66, 38921.96, 8977.20, 3609.20, 0.000, 0.000, 0.000, 22:04:07.096
38, 60217.74, 55409.30, -19484.75, 23284.50, 8488.14, 38963.96, 8983.61, 3612.60, 0.012, 0.904, 0.466, 22:04:07.097
39, 60213.99, 55370.93, -19516.78, 23247.71, 8477.99, 38958.48, 8950.04, 3579.81, 0.000, 0.000, 0.000, 22:04:07.097
40, 60219.91, 55356.15, -19524.49, 23238.88, 8449.47, 38930.03, 8938.10, 3573.49, 0.000, 0.000, 0.000, 22:04:07.097
41, 60228.32, 55370.99, -19504.22, 23256.30, 8442.30, 38912.13, 8950.17, 3584.46, 0.000, 0.000, 0.000, 22:04:07.097
42, 60180.30, 55408.21, -19479.52, 23279.23, 8451.02, 38910.68, 8968.77, 3600.53, 0.000, 0.000, 0.000, 22:04:07.097
43, 60195.46, 55423.54, -19482.25, 23277.55, 8480.41, 38950.55, 8967.50, 3601.69, 0.000, 0.000, 0.000, 22:04:07.098
44, 60199.26, 55401.19, -19516.63, 23242.33, 8471.69, 38953.39, 8935.18, 3573.22, 0.000, 0.000, 0.000, 22:04:07.098
45, 60193.04, 55368.13, -19533.77, 23225.23, 8440.22, 38920.62, 8916.80, 3553.10, 0.000, 0.000, 0.000, 22:04:07.098
46, 60198.92, 55366.61, -19518.73, 23239.87, 8431.57, 38902.07, 8924.65, 3559.47, 0.000, 0.000, 0.000, 22:04:07.099
47, 60196.31, 55409.70, -19490.43, 23269.46, 8439.46, 38902.56, 8946.35, 3584.04, 0.000, 0.000, 0.000, 22:04:07.099
48, 60193.34, 55413.13, -19487.95, 23274.85, 8474.31, 38950.13, 8955.36, 3599.44, 0.010, 0.902, 0.474, 22:04:07.099
49, 60206.39, 55383.48, -19520.13, 23244.72, 8464.20, 38961.77, 8930.04, 3579.99, 0.000, 0.000, 0.000, 22:04:07.099
50, 60196.66, 55369.09, -19528.56, 23236.34, 8439.37, 38938.88, 8916.54, 3564.50, 0.000, 0.000, 0.000, 22:04:07.100
51, 60189.27, 55391.46, -19506.41, 23255.96, 8438.63, 38916.20, 8937.21, 3568.90, 0.000, 0.000, 0.000, 22:04:07.100
52, 60211.21, 55417.89, -19471.97, 23286.52, 8459.89, 38915.23, 8979.28, 3600.17, 0.000, 0.000, 0.000, 22:04:07.100
53, 60240.41, 55401.32, -19476.44, 23283.77, 8495.21, 38959.13, 8982.70, 3613.23, 0.000, 0.000, 0.000, 22:04:07.100
54, 60235.96, 55383.93, -19503.35, 23255.85, 8491.96, 38971.43, 8958.96, 3590.38, 0.000, 0.000, 0.000, 22:04:07.101
55, 60184.82, 55353.45, -19519.87, 23242.53, 8454.12, 38939.35, 8942.84, 3580.93, 0.000, 0.000, 0.000, 22:04:07.101
56, 60182.54, 55355.73, -19509.09, 23253.88, 8441.00, 38920.02, 8949.77, 3591.10, 0.000, 0.000, 0.000, 22:04:07.101
57, 60192.33, 55383.29, -19478.92, 23280.62, 8452.78, 38919.82, 8971.83, 3609.02, 0.002, 0.900, 0.476, 22:04:07.101
58, 60198.86, 55393.10, -19473.67, 23284.24, 8488.46, 38962.11, 8979.68, 3618.03, 0.000, 0.000, 0.000, 22:04:07.101
59, 60175.95, 55372.85, -19508.69, 23247.85, 8476.72, 38964.25, 8946.00, 3586.23, 0.000, 0.000, 0.000, 22:04:07.102
60, 60187.90, 55376.13, -19522.44, 23232.47, 8442.90, 38934.52, 8924.96, 3564.05, 0.000, 0.000, 0.000, 22:04:07.102
61, 60230.93, 55391.55, -19508.27, 23242.33, 8432.98, 38913.49, 8932.96, 3564.57, 0.000, 0.000, 0.000, 22:04:07.102
62, 60219.55, 55406.13, -19477.69, 23271.92, 8447.46, 38910.99, 8960.21, 3588.10, 0.000, 0.000, 0.000, 22:04:07.102
63, 60229.59, 55407.43, -19478.27, 23276.64, 8478.31, 38946.55, 8967.09, 3599.44, 0.000, 0.000, 0.000, 22:04:07.102
64, 60239.49, 55392.85, -19508.29, 23245.77, 8472.43, 38956.50, 8938.86, 3575.97, 0.000, 0.000, 0.000, 22:04:07.102
65, 60177.64, 55386.82, -19521.83, 23232.65, 8444.65, 38933.41, 8924.00, 3559.34, 0.000, 0.000, 0.000, 22:04:07.103
66, 60180.75, 55402.46, -19512.40, 23242.93, 8430.92, 38911.21, 8929.95, 3566.91, 0.000, 0.000, 0.000, 22:04:07.103
67, 60197.18, 55431.41, -19486.52, 23266.73, 8437.09, 38906.43, 8949.28, 3594.65, 0.004, 0.906, 0.472, 22:04:07.103
68, 60189.09, 55425.35, -19484.37, 23266.56, 8467.20, 38944.58, 8949.44, 3598.43, 0.000, 0.000, 0.000, 22:04:07.104
69, 60191.82, 55424.79, -19515.35, 23235.13, 8459.96, 38948.63, 8919.49, 3565.42, 0.000, 0.000, 0.000, 22:04:07.104
70, 60191.93, 55375.24, -19522.71, 23229.90, 8436.75, 38926.93, 8912.58, 3552.70, 0.000, 0.000, 0.000, 22:04:07.104
71, 60190.21, 55357.85, -19503.42, 23248.03, 8431.03, 38906.96, 8926.86, 3561.30, 0.000, 0.000, 0.000, 22:04:07.104
72, 60213.72, 55394.62, -19470.98, 23276.53, 8445.23, 38907.86, 8956.10, 3582.78, 0.000, 0.000, 0.000, 22:04:07.104
73, 60224.27, 55421.28, -19469.40, 23282.60, 8480.92, 38953.23, 8966.38, 3596.22, 0.000, 0.000, 0.000, 22:04:07.104
74, 60220.74, 55398.04, -19504.40, 23252.77, 8476.18, 38965.53, 8940.61, 3587.92, 0.000, 0.000, 0.000, 22:04:07.104
75, 60205.41, 55385.68, -19516.80, 23240.54, 8445.74, 38938.82, 8929.72, 3573.80, 0.000, 0.000, 0.000, 22:04:07.104
76, 60208.67, 55404.92, -19498.46, 23256.16, 8437.65, 38921.16, 8943.80, 3580.59, 0.000, 0.000, 0.000, 22:04:07.105
77, 60225.30, 55410.89, -19472.93, 23280.06, 8446.01, 38915.55, 8966.40, 3599.88, 0.004, 0.902, 0.468, 22:04:07.105
78, 60268.53, 55426.16, -19466.74, 23288.48, 8479.20, 38958.57, 8974.22, 3608.55, 0.000, 0.000, 0.000, 22:04:07.105
79, 60251.27, 55418.49, -19499.46, 23258.78, 8469.19, 38968.34, 8943.31, 3582.09, 0.000, 0.000, 0.000, 22:04:07.105
80, 60204.67, 55410.64, -19515.42, 23241.52, 8438.34, 38938.28, 8926.84, 3565.73, 0.000, 0.000, 0.000, 22:04:07.105
81, 60197.40, 55428.99, -19506.39, 23247.82, 8427.05, 38915.48, 8932.94, 3567.54, 0.000, 0.000, 0.000, 22:04:07.106
82, 60229.75, 55450.38, -19479.95, 23269.80, 8440.60, 38910.72, 8959.41, 3588.10, 0.000, 0.000, 0.000, 22:04:07.106
83, 60246.06, 55448.57, -19480.44, 23268.41, 8473.79, 38950.55, 8964.90, 3595.26, 0.000, 0.000, 0.000, 22:04:07.107
84, 60196.35, 55413.19, -19507.10, 23240.65, 8472.32, 38963.09, 8941.19, 3574.51, 0.000, 0.000, 0.000, 22:04:07.107
85, 60177.36, 55372.87, -19520.65, 23228.00, 8439.97, 38931.51, 8919.02, 3554.28, 0.000, 0.000, 0.000, 22:04:07.108
86, 60175.12, 55382.19, -19507.78, 23244.12, 8425.74, 38908.21, 8921.90, 3553.52, 0.000, 0.000, 0.000, 22:04:07.109
87, 60190.41, 55417.77, -19476.06, 23281.82, 8429.87, 38908.60, 8942.75, 3579.25, 0.006, 0.910, 0.466, 22:04:07.109
88, 60218.19, 55436.32, -19470.87, 23292.44, 8461.28, 38954.93, 8948.52, 3599.93, 0.000, 0.000, 0.000, 22:04:07.110
89, 60245.71, 55432.84, -19500.44, 23266.18, 8463.91, 38971.43, 8925.41, 3588.89, 0.000, 0.000, 0.000, 22:04:07.111
90, 60232.96, 55428.97, -19513.23, 23251.94, 8439.04, 38942.73, 8916.69, 3573.33, 0.000, 0.000, 0.000, 22:04:07.111
91, 60234.26, 55427.36, -19505.38, 23256.50, 8421.56, 38918.92, 8924.72, 3572.95, 0.000, 0.000, 0.000, 22:04:07.112
92, 60232.05, 55454.74, -19480.28, 23278.71, 8431.28, 38912.87, 8949.82, 3585.18, 0.000, 0.000, 0.000, 22:04:07.113
93, 60240.96, 55426.07, -19474.56, 23284.46, 8466.13, 38958.55, 8960.75, 3595.28, 0.000, 0.000, 0.000, 22:04:07.113
94, 60203.48, 55390.59, -19505.34, 23253.01, 8463.67, 38969.04, 8938.08, 3578.25, 0.000, 0.000, 0.000, 22:04:07.114
95, 60182.58, 55393.59, -19518.04, 23238.97, 8438.72, 38944.47, 8925.79, 3576.84, 0.000, 0.000, 0.000, 22:04:07.115
96, 60202.95, 55407.04, -19505.94, 23251.69, 8430.74, 38923.66, 8934.51, 3582.83, 0.000, 0.000, 0.000, 22:04:07.116
97, 60228.76, 55429.11, -19475.90, 23280.26, 8445.63, 38923.33, 8963.52, 3605.07, 0.008, 0.912, 0.478, 22:04:07.117
98, 60245.62, 55447.93, -19467.18, 23290.07, 8484.07, 38968.34, 8986.27, 3620.42, 0.000, 0.000, 0.000, 22:04:07.117
99, 60229.75, 55430.60, -19496.62, 23266.64, 8479.71, 38984.21, 8963.47, 3601.87, 0.000, 0.000, 0.000, 22:04:07.117
100, 60220.98, 55423.07, -19516.49, 23250.51, 8443.37, 38957.70, 8940.09, 3582.18, 0.000, 0.000, 0.000, 22:04:07.117
101, 60241.93, 55453.96, -19504.04, 23261.33, 8432.11, 38942.17, 8950.46, 3589.33, 0.000, 0.000, 0.000, 22:04:07.117
102, 60257.98, 55466.50, -19475.16, 23288.35, 8444.71, 38937.70, 8976.93, 3611.80, 0.000, 0.000, 0.000, 22:04:07.118
103, 60283.79, 55459.55, -19467.16, 23294.38, 8477.75, 38971.63, 8983.90, 3621.56, 0.000, 0.000, 0.000, 22:04:07.118
104, 60249.48, 55432.01, -19490.05, 23271.41, 8479.76, 38980.08, 8961.64, 3597.13, 0.000, 0.000, 0.000, 22:04:07.118
105, 60229.16, 55407.89, -19501.61, 23261.88, 8456.20, 38953.55, 8949.08, 3578.02, 0.000, 0.000, 0.000, 22:04:07.554
106, 60232.34, 55409.17, -19487.08, 23274.87, 8448.31, 38933.90, 8957.93, 3586.99, 0.000, 0.000, 0.000, 22:04:07.554
107, 60226.19, 55437.82, -19460.43, 23298.85, 8461.70, 38929.16, 8985.31, 3615.57, 0.004, 0.912, 0.480, 22:04:07.555
108, 60252.72, 55470.72, -19459.58, 23303.62, 8500.26, 38974.24, 8994.30, 3628.94, 0.000, 0.000, 0.000, 22:04:07.555
109, 60259.16, 55446.54, -19497.00, 23271.54, 8497.60, 38988.50, 8966.02, 3608.55, 0.000, 0.000, 0.000, 22:04:07.555
110, 60228.07, 55388.25, -19509.96, 23259.85, 8472.56, 38969.24, 8955.09, 3600.13, 0.000, 0.000, 0.000, 22:04:07.555
111, 60195.26, 55383.35, -19501.45, 23265.33, 8461.28, 38952.45, 8961.48, 3604.71, 0.000, 0.000, 0.000, 22:04:07.555
112, 60199.04, 55398.66, -19475.05, 23289.60, 8466.57, 38947.80, 8984.71, 3625.03, 0.000, 0.000, 0.000, 22:04:07.556
113, 60204.42, 55416.81, -19460.01, 23305.27, 8500.08, 38991.48, 8998.32, 3648.01, 0.000, 0.000, 0.000, 22:04:07.556
114, 60218.79, 55417.75, -19488.55, 23278.36, 8493.13, 39010.05, 8966.92, 3624.76, 0.000, 0.000, 0.000, 22:04:07.556
115, 60221.70, 55390.44, -19514.06, 23254.33, 8455.08, 38979.83, 8939.94, 3597.96, 0.000, 0.000, 0.000, 22:04:07.557
116, 60225.68, 55401.12, -19498.86, 23262.49, 8443.24, 38952.70, 8948.43, 3604.00, 0.000, 0.000, 0.000, 22:04:07.557
117, 60237.66, 55417.33, -19466.67, 23289.36, 8453.81, 38949.90, 8978.87, 3626.19, 0.006, 0.906, 0.476, 22:04:07.558
118, 60226.91, 55428.70, -19459.18, 23296.24, 8493.75, 38996.59, 8994.19, 3641.39, 0.000, 0.000, 0.000, 22:04:07.558
119, 60230.19, 55407.04, -19494.92, 23258.04, 8494.20, 39015.06, 8970.04, 3619.98, 0.000, 0.000, 0.000, 22:04:07.559
120, 60245.64, 55381.68, -19511.06, 23239.31, 8469.25, 38990.54, 8954.00, 3610.03, 0.000, 0.000, 0.000, 22:04:07.559
121, 60245.35, 55381.34, -19500.04, 23249.05, 8465.19, 38969.50, 8963.05, 3618.43, 0.000, 0.000, 0.000, 22:04:07.559
122, 60213.96, 55408.77, -19469.64, 23279.18, 8478.89, 38971.14, 8999.01, 3652.25, 0.000, 0.000, 0.000, 22:04:07.564
123, 60203.33, 55426.96, -19458.04, 23294.18, 8516.15, 39009.29, 9020.36, 3669.24, 0.000, 0.000, 0.000, 22:04:07.566
124, 60210.79, 55415.05, -19485.94, 23268.52, 8511.61, 39022.19, 8995.39, 3640.72, 0.000, 0.000, 0.000, 22:04:07.566
125, 60175.10, 55388.76, -19511.55, 23245.32, 8473.46, 38991.97, 8968.55, 3618.93, 0.000, 0.000, 0.000, 22:04:07.566
126, 60179.84, 55369.54, -19505.76, 23248.85, 8461.16, 38963.09, 8974.20, 3622.99, 0.004, 0.904, 0.474, 22:04:07.567
127, 60201.85, 55387.64, -19479.21, 23270.80, 8472.38, 38953.23, 8998.83, 3644.65, 0.000, 0.000, 0.000, 22:04:07.567
128, 60229.81, 55413.75, -19472.19, 23278.29, 8508.86, 38989.69, 9010.64, 3654.33, 0.000, 0.000, 0.000, 22:04:07.567
129, 60242.84, 55409.50, -19500.24, 23250.64, 8512.44, 39009.18, 8988.71, 3633.54, 0.000, 0.000, 0.000, 22:04:07.567
130, 60236.94, 55380.85, -19512.58, 23237.39, 8486.22, 38983.74, 8971.12, 3620.02, 0.000, 0.000, 0.000, 22:04:07.567
131, 60228.70, 55387.09, -19502.30, 23246.82, 8472.27, 38964.75, 8972.59, 3626.66, 0.000, 0.000, 0.000, 22:04:07.568
132, 60217.79, 55408.61, -19477.73, 23271.23, 8474.40, 38950.11, 8988.98, 3643.76, 0.000, 0.000, 0.000, 22:04:07.568
133, 60203.77, 55406.46, -19469.17, 23281.04, 8505.69, 38983.07, 8995.26, 3651.16, 0.000, 0.000, 0.000, 22:04:07.568
134, 60200.98, 55394.46, -19501.36, 23253.90, 8501.40, 38996.82, 8965.22, 3625.36, 0.000, 0.000, 0.000, 22:04:07.568
135, 60198.57, 55398.82, -19519.15, 23241.39, 8470.84, 38974.54, 8947.43, 3608.33, 0.000, 0.000, 0.000, 22:04:07.568
136, 60221.61, 55410.13, -19513.68, 23248.27, 8456.96, 38954.26, 8955.56, 3604.69, 0.004, 0.904, 0.472, 22:04:07.568
137, 60210.90, 55390.95, -19494.05, 23266.62, 8455.08, 38938.28, 8974.25, 3610.66, 0.000, 0.000, 0.000, 22:04:07.569
138, 60198.03, 55398.28, -19475.43, 23284.91, 8497.35, 38985.62, 8994.74, 3636.36, 0.000, 0.000, 0.000, 22:04:07.569
139, 60182.16, 55382.14, -19507.35, 23252.77, 8493.66, 39005.38, 8965.53, 3627.08, 0.000, 0.000, 0.000, 22:04:07.569
140, 60194.16, 55368.80, -19522.37, 23237.14, 8464.07, 38980.41, 8948.90, 3618.17, 0.000, 0.000, 0.000, 22:04:07.570
141, 60223.69, 55389.05, -19512.18, 23241.10, 8453.47, 38957.75, 8954.94, 3616.27, 0.000, 0.000, 0.000, 22:04:07.572
142, 60208.55, 55414.67, -19481.94, 23264.75, 8465.08, 38950.57, 8982.58, 3636.47, 0.000, 0.000, 0.000, 22:04:07.573
143, 60178.25, 55400.16, -19473.31, 23273.39, 8502.49, 38989.55, 8999.01, 3649.75, 0.000, 0.000, 0.000, 22:04:07.573
144, 60176.77, 55381.72, -19504.62, 23243.20, 8503.65, 39000.89, 8973.93, 3621.47, 0.000, 0.000, 0.000, 22:04:07.573
145, 60182.92, 55363.04, -19527.42, 23220.00, 8467.91, 38966.93, 8950.51, 3595.90, 0.000, 0.000, 0.000, 22:04:07.574
146, 60190.63, 55387.13, -19516.43, 23229.56, 8455.24, 38950.66, 8960.95, 3606.92, 0.008, 0.908, 0.476, 22:04:07.574
147, 60227.51, 55417.82, -19480.30, 23265.13, 8472.14, 38953.70, 8998.57, 3640.56, 0.000, 0.000, 0.000, 22:04:07.575
148, 60213.32, 55424.93, -19460.68, 23286.22, 8517.20, 39000.82, 9023.47, 3665.80, 0.000, 0.000, 0.000, 22:04:07.575
149, 60187.52, 55395.06, -19502.46, 23248.03, 8506.27, 39011.55, 8986.09, 3632.92, 0.000, 0.000, 0.000, 22:04:07.575
150, 60186.07, 55378.12, -19529.90, 23220.33, 8465.63, 38973.71, 8955.16, 3599.08, 0.000, 0.000, 0.000, 22:04:07.575
151, 60212.29, 55402.04, -19517.99, 23227.02, 8454.19, 38945.50, 8959.50, 3600.17, 0.000, 0.000, 0.000, 22:04:07.576
152, 60210.55, 55421.37, -19478.45, 23263.22, 8470.35, 38945.19, 8992.35, 3635.22, 0.000, 0.000, 0.000, 22:04:07.576
153, 60217.36, 55431.30, -19461.17, 23278.78, 8512.13, 38989.60, 9009.56, 3653.59, 0.000, 0.000, 0.000, 22:04:07.576
154, 60227.09, 55430.00, -19501.03, 23238.46, 8504.30, 39001.80, 8970.76, 3620.47, 0.000, 0.000, 0.000, 22:04:07.585
155, 60209.76, 55408.92, -19525.01, 23220.29, 8468.43, 38977.71, 8945.97, 3608.38, 0.000, 0.000, 0.000, 22:04:07.587
156, 60179.39, 55384.76, -19515.35, 23230.95, 8455.35, 38950.21, 8954.94, 3609.85, 0.008, 0.916, 0.472, 22:04:07.587
157, 60179.07, 55396.58, -19488.62, 23256.16, 8461.05, 38939.62, 8979.95, 3627.58, 0.000, 0.000, 0.000, 22:04:07.587
158, 60211.37, 55416.63, -19475.66, 23272.08, 8495.29, 38977.35, 8991.86, 3645.37, 0.000, 0.000, 0.000, 22:04:07.587
159, 60219.89, 55402.69, -19510.08, 23240.18, 8488.88, 38989.58, 8957.53, 3616.94, 0.000, 0.000, 0.000, 22:04:07.588
160, 60187.01, 55392.70, -19524.76, 23225.72, 8459.51, 38963.94, 8939.67, 3601.85, 0.000, 0.000, 0.000, 22:04:07.588
161, 60204.40, 55417.35, -19514.64, 23234.26, 8447.95, 38939.26, 8942.22, 3600.26, 0.000, 0.000, 0.000, 22:04:07.588
162, 60247.63, 55449.96, -19487.84, 23258.55, 8455.62, 38928.87, 8961.26, 3614.08, 0.000, 0.000, 0.000, 22:04:07.588
163, 60220.18, 55446.92, -19476.66, 23268.39, 8498.78, 38967.20, 8981.27, 3638.86, 0.000, 0.000, 0.000, 22:04:07.588
164, 60201.32, 55417.26, -19502.32, 23241.43, 8505.35, 38988.06, 8965.62, 3621.45, 0.000, 0.000, 0.000, 22:04:07.588
165, 60165.73, 55381.30, -19523.96, 23222.52, 8467.62, 38959.60, 8942.62, 3592.82, 0.000, 0.000, 0.000, 22:04:07.588
166, 60171.30, 55384.00, -19512.78, 23231.08, 8454.57, 38937.05, 8945.64, 3590.00, 0.004, 0.912, 0.474, 22:04:07.588
167, 60193.11, 55412.30, -19483.68, 23255.51, 8460.38, 38930.17, 8971.30, 3612.62, 0.000, 0.000, 0.000, 22:04:07.588
168, 60197.14, 55432.41, -19469.91, 23269.01, 8496.59, 38972.34, 8990.83, 3634.75, 0.000, 0.000, 0.000, 22:04:07.588
169, 60198.23, 55404.45, -19496.22, 23241.07, 8502.40, 38990.07, 8972.35, 3620.54, 0.000, 0.000, 0.000, 22:04:07.588
170, 60196.98, 55376.73, -19514.44, 23222.70, 8474.82, 38964.23, 8958.49, 3602.94, 0.000, 0.000, 0.000, 22:04:07.589
171, 60203.82, 55388.43, -19510.88, 23225.65, 8461.07, 38939.04, 8961.40, 3600.84, 0.000, 0.000, 0.000, 22:04:07.589
172, 60218.75, 55423.92, -19482.83, 23253.08, 8470.53, 38937.54, 8988.73, 3625.52, 0.000, 0.000, 0.000, 22:04:07.589
173, 60237.61, 55442.05, -19473.53, 23262.38, 8500.68, 38979.47, 9002.08, 3647.69, 0.000, 0.000, 0.000, 22:04:07.589
174, 60221.36, 55415.25, -19507.26, 23233.45, 8497.19, 38999.88, 8977.42, 3625.25, 0.000, 0.000, 0.000, 22:04:07.589
175, 60178.45, 55378.25, -19532.79, 23211.28, 8464.40, 38968.01, 8955.52, 3601.98, 0.000, 0.000, 0.000, 22:04:07.589
176, 60149.53, 55370.25, -19520.34, 23223.75, 8453.68, 38945.81, 8961.40, 3604.40, 0.006, 0.908, 0.472, 22:04:07.589
177, 60151.43, 55404.23, -19493.31, 23249.21, 8459.04, 38938.88, 8981.29, 3623.28, 0.000, 0.000, 0.000, 22:04:07.589
178, 60170.47, 55413.01, -19483.48, 23258.58, 8489.15, 38971.29, 8987.70, 3637.32, 0.000, 0.000, 0.000, 22:04:07.590
179, 60181.31, 55386.66, -19510.48, 23230.77, 8494.42, 38993.54, 8964.75, 3623.31, 0.000, 0.000, 0.000, 22:04:07.590
180, 60181.38, 55372.13, -19531.51, 23210.56, 8461.36, 38971.96, 8941.23, 3596.86, 0.000, 0.000, 0.000, 22:04:07.590
181, 60196.78, 55377.47, -19517.90, 23223.44, 8449.61, 38951.42, 8948.88, 3594.41, 0.000, 0.000, 0.000, 22:04:07.590
182, 60220.22, 55413.95, -19488.02, 23252.29, 8459.69, 38943.46, 8973.69, 3614.79, 0.000, 0.000, 0.000, 22:04:07.594
183, 60225.05, 55439.66, -19471.21, 23270.62, 8495.07, 38980.79, 8989.56, 3645.57, 0.000, 0.000, 0.000, 22:04:07.594
184, 60218.26, 55402.93, -19498.90, 23243.89, 8497.22, 38999.08, 8962.42, 3630.93, 0.000, 0.000, 0.000, 22:04:07.594
185, 60224.92, 55389.01, -19518.08, 23226.66, 8466.13, 38969.24, 8942.66, 3606.92, 0.000, 0.000, 0.000, 22:04:07.594
186, 60198.97, 55413.21, -19508.96, 23234.01, 8452.09, 38947.49, 8948.65, 3607.48, 0.004, 0.908, 0.472, 22:04:07.594
187, 60165.66, 55459.10, -19483.84, 23257.86, 8453.00, 38937.41, 8968.21, 3621.97, 0.000, 0.000, 0.000, 22:04:07.595
188, 60200.38, 55484.23, -19467.56, 23277.66, 8489.37, 38977.84, 8987.37, 3645.93, 0.000, 0.000, 0.000, 22:04:07.595
189, 60206.52, 55411.80, -19490.01, 23256.39, 8497.24, 39002.34, 8970.02, 3629.68, 0.000, 0.000, 0.000, 22:04:07.595
190, 60196.06, 55381.61, -19515.31, 23231.91, 8462.79, 38970.00, 8947.13, 3601.11, 0.000, 0.000, 0.000, 22:04:07.595
191, 60232.43, 55401.32, -19505.18, 23242.91, 8456.11, 38953.30, 8962.13, 3610.01, 0.000, 0.000, 0.000, 22:04:07.595
192, 60235.87, 55434.56, -19478.03, 23269.26, 8465.30, 38947.00, 8987.97, 3634.01, 0.000, 0.000, 0.000, 22:04:07.596
193, 60225.01, 55437.42, -19462.54, 23287.07, 8498.18, 38987.59, 9002.05, 3654.64, 0.000, 0.000, 0.000, 22:04:07.596
194, 60227.00, 55419.54, -19491.95, 23263.16, 8499.09, 39012.64, 8979.90, 3634.08, 0.000, 0.000, 0.000, 22:04:07.596
195, 60223.29, 55404.74, -19512.96, 23241.81, 8469.63, 38981.64, 8967.81, 3609.58, 0.006, 0.902, 0.464, 22:04:07.597
196, 60244.79, 55412.50, -19506.84, 23247.00, 8450.95, 38956.77, 8969.96, 3602.16, 0.000, 0.000, 0.000, 22:04:07.597
197, 60230.51, 55433.15, -19481.20, 23271.47, 8453.92, 38947.71, 8991.39, 3622.08, 0.000, 0.000, 0.000, 22:04:07.597
198, 60205.29, 55443.68, -19467.79, 23285.76, 8488.57, 38982.38, 9006.39, 3645.55, 0.000, 0.000, 0.000, 22:04:07.597
199, 60215.24, 55441.02, -19496.62, 23260.03, 8492.88, 39003.95, 8980.86, 3632.23, 0.000, 0.000, 0.000, 22:04:07.597
200, 60195.17, 55416.77, -19521.61, 23236.76, 8460.60, 38981.39, 8953.28, 3618.26, 0.000, 0.000, 0.000, 22:04:07.598
201, 60188.08, 55402.33, -19521.70, 23237.97, 8441.09, 38956.36, 8949.08, 3607.77, 0.000, 0.000, 0.000, 22:04:07.598
202, 60206.77, 55424.01, -19494.97, 23262.89, 8444.40, 38946.28, 8971.83, 3620.22, 0.000, 0.000, 0.000, 22:04:07.598
203, 60233.55, 55448.46, -19470.40, 23284.24, 8485.71, 38986.94, 8995.66, 3649.55, 0.000, 0.000, 0.000, 22:04:07.598
204, 60236.03, 55421.84, -19496.40, 23260.52, 8493.30, 39010.18, 8968.55, 3634.57, 0.000, 0.000, 0.000, 22:04:07.598
205, 60210.08, 55385.45, -19515.04, 23242.73, 8462.44, 38984.10, 8946.33, 3609.00, 0.006, 0.904, 0.468, 22:04:07.598
206, 60212.51, 55391.49, -19504.67, 23251.11, 8448.65, 38961.68, 8949.19, 3606.95, 0.000, 0.000, 0.000, 22:04:07.599
207, 60214.57, 55415.07, -19477.69, 23276.84, 8450.97, 38948.85, 8968.77, 3623.02, 0.000, 0.000, 0.000, 22:04:07.599
208, 60259.12, 55412.79, -19457.57, 23295.39, 8487.27, 38983.09, 8989.78, 3644.36, 0.000, 0.000, 0.000, 22:04:07.599
209, 60232.45, 55389.25, -19486.38, 23267.16, 8495.99, 39006.61, 8972.77, 3627.00, 0.000, 0.000, 0.000, 22:04:07.599
210, 60152.12, 55371.59, -19510.30, 23245.28, 8470.86, 38983.59, 8954.29, 3610.34, 0.000, 0.000, 0.000, 22:04:07.599
211, 60151.80, 55387.26, -19506.08, 23250.26, 8460.34, 38960.72, 8958.00, 3609.47, 0.000, 0.000, 0.000, 22:04:07.599
212, 60192.22, 55414.02, -19484.91, 23271.85, 8464.76, 38948.94, 8979.61, 3622.28, 0.000, 0.000, 0.000, 22:04:07.599
213, 60212.07, 55419.79, -19473.22, 23282.60, 8500.03, 38982.96, 9000.56, 3639.40, 0.000, 0.000, 0.000, 22:04:07.600
214, 60184.15, 55396.98, -19503.08, 23253.12, 8508.04, 39007.50, 8984.08, 3624.56, 0.000, 0.000, 0.000, 22:04:07.600
215, 60183.48, 55378.30, -19523.35, 23234.17, 8480.61, 38985.78, 8967.05, 3609.90, 0.008, 0.902, 0.474, 22:04:07.604
216, 60204.27, 55372.29, -19517.74, 23237.14, 8462.50, 38962.69, 8967.05, 3610.99, 0.000, 0.000, 0.000, 22:04:07.606
217, 60212.42, 55369.80, -19493.58, 23258.38, 8457.88, 38944.32, 8984.08, 3621.07, 0.000, 0.000, 0.000, 22:04:07.616
218, 60196.13, 55381.47, -19473.31, 23282.27, 8489.01, 38979.83, 9003.39, 3639.65, 0.000, 0.000, 0.000, 22:04:07.616
219, 60213.23, 55363.26, -19495.66, 23265.51, 8498.54, 39011.59, 8986.47, 3623.46, 0.000, 0.000, 0.000, 22:04:07.616
220, 60204.49, 55352.64, -19516.65, 23245.01, 8466.57, 38988.86, 8963.85, 3609.92, 0.000, 0.000, 0.000, 22:04:07.627
221, 60180.91, 55363.88, -19508.42, 23249.93, 8449.14, 38966.27, 8965.84, 3619.10, 0.000, 0.000, 0.000, 22:04:07.634
222, 60191.95, 55401.75, -19485.40, 23268.95, 8445.43, 38953.05, 8980.57, 3637.81, 0.000, 0.000, 0.000, 22:04:07.634
223, 60210.43, 55425.33, -19469.33, 23288.75, 8481.26, 38988.66, 8999.71, 3665.75, 0.000, 0.000, 0.000, 22:04:07.634
224, 60204.20, 55394.97, -19494.21, 23271.43, 8494.53, 39021.03, 8983.43, 3653.46, 0.000, 0.000, 0.000, 22:04:07.635
225, 60184.48, 55355.68, -19522.68, 23245.46, 8462.64, 38996.89, 8954.51, 3621.72, 0.004, 0.904, 0.468, 22:04:08.037
226, 60193.45, 55354.41, -19517.19, 23247.82, 8446.08, 38972.52, 8953.24, 3613.67, 0.000, 0.000, 0.000, 22:04:08.037
227, 60217.56, 55387.96, -19488.69, 23269.86, 8451.84, 38962.69, 8972.15, 3625.43, 0.000, 0.000, 0.000, 22:04:08.038
228, 60234.57, 55402.04, -19469.58, 23284.46, 8487.29, 38994.50, 8988.51, 3645.32, 0.000, 0.000, 0.000, 22:04:08.038
229, 60217.41, 55379.30, -19491.41, 23262.96, 8496.77, 39018.41, 8968.93, 3631.24, 0.000, 0.000, 0.000, 22:04:08.038
230, 60173.98, 55358.81, -19519.58, 23234.57, 8461.16, 38984.93, 8942.46, 3598.38, 0.000, 0.000, 0.000, 22:04:08.038
231, 60164.95, 55347.86, -19520.94, 23229.12, 8439.93, 38951.47, 8938.89, 3584.55, 0.000, 0.000, 0.000, 22:04:08.038
232, 60179.14, 55361.34, -19497.96, 23250.15, 8440.67, 38935.84, 8961.46, 3599.99, 0.000, 0.000, 0.000, 22:04:08.038
233, 60198.66, 55382.88, -19481.11, 23269.66, 8476.43, 38971.00, 8985.47, 3624.13, 0.000, 0.000, 0.000, 22:04:08.038
234, 60221.21, 55385.81, -19508.20, 23245.72, 8485.33, 38995.05, 8964.95, 3608.96, 0.000, 0.000, 0.000, 22:04:08.038
235, 60219.84, 55365.45, -19527.58, 23230.53, 8458.88, 38973.04, 8945.39, 3586.96, 0.006, 0.902, 0.474, 22:04:08.039
236, 60181.76, 55363.68, -19513.54, 23244.36, 8451.66, 38959.83, 8958.40, 3601.40, 0.000, 0.000, 0.000, 22:04:08.039
237, 60175.21, 55378.55, -19491.32, 23266.62, 8453.18, 38948.25, 8983.63, 3624.29, 0.000, 0.000, 0.000, 22:04:08.039
238, 60183.97, 55391.20, -19473.67, 23287.50, 8487.11, 38982.74, 9004.24, 3646.51, 0.000, 0.000, 0.000, 22:04:08.039
239, 60206.84, 55380.13, -19502.59, 23263.07, 8487.92, 39008.04, 8978.45, 3621.07, 0.000, 0.000, 0.000, 22:04:08.039
240, 60204.33, 55346.52, -19521.52, 23243.42, 8456.00, 38983.77, 8954.98, 3598.47, 0.000, 0.000, 0.000, 22:04:08.040
241, 60161.35, 55338.96, -19514.32, 23248.47, 8444.02, 38964.59, 8956.75, 3602.48, 0.000, 0.000, 0.000, 22:04:08.040
242, 60162.18, 55361.25, -19490.32, 23271.00, 8445.47, 38953.79, 8978.79, 3620.92, 0.000, 0.000, 0.000, 22:04:08.040
243, 60175.77, 55379.89, -19474.43, 23286.72, 8477.48, 38986.34, 9000.51, 3649.44, 0.000, 0.000, 0.000, 22:04:08.040
244, 60224.88, 55391.38, -19499.86, 23260.97, 8487.43, 39015.39, 8979.23, 3638.39, 0.000, 0.000, 0.000, 22:04:08.040
245, 60199.28, 55376.40, -19521.74, 23239.51, 8459.67, 38994.05, 8954.56, 3614.84, 0.006, 0.906, 0.472, 22:04:08.040
246, 60173.40, 55373.52, -19517.23, 23244.09, 8440.42, 38968.50, 8949.73, 3607.15, 0.000, 0.000, 0.000, 22:04:08.041
247, 60192.24, 55398.66, -19492.98, 23267.58, 8435.57, 38953.52, 8967.27, 3623.75, 0.000, 0.000, 0.000, 22:04:08.041
248, 60188.37, 55377.96, -19469.96, 23289.94, 8470.98, 38988.55, 8989.18, 3649.39, 0.000, 0.000, 0.000, 22:04:08.041
249, 60199.04, 55362.72, -19493.22, 23265.62, 8482.15, 39014.48, 8965.80, 3631.17, 0.000, 0.000, 0.000, 22:04:08.041
250, 60188.24, 55369.47, -19517.14, 23240.25, 8450.03, 38987.57, 8935.47, 3599.44, 0.000, 0.000, 0.000, 22:04:08.041
251, 60175.12, 55365.63, -19510.75, 23240.76, 8436.31, 38957.93, 8938.15, 3588.28, 0.000, 0.000, 0.000, 22:04:08.041
252, 60186.45, 55376.73, -19482.56, 23261.73, 8444.22, 38945.66, 8963.45, 3606.23, 0.000, 0.000, 0.000, 22:04:08.042
253, 60192.64, 55386.61, -19461.24, 23280.41, 8484.63, 38979.95, 8991.64, 3638.13, 0.000, 0.000, 0.000, 22:04:08.042
254, 60192.91, 55377.47, -19488.87, 23252.14, 8496.72, 39000.35, 8972.46, 3617.52, 0.000, 0.000, 0.000, 22:04:08.042
255, 60181.18, 55378.77, -19515.44, 23226.61, 8468.43, 38975.32, 8952.30, 3589.76, 0.010, 0.904, 0.468, 22:04:08.043
0, 60177.00, 55379.44, -19513.90, 23230.03, 8446.77, 38950.51, 8949.88, 3590.56, 0.000, 0.000, 0.000, 22:04:08.043
1, 60210.64, 55394.46, -19487.05, 23258.96, 8447.75, 38942.86, 8973.96, 3617.27, 0.000, 0.000, 0.000, 22:04:08.043
2, 60231.36, 55407.13, -19465.87, 23280.82, 8482.15, 38974.02, 8992.71, 3634.08, 0.000, 0.000, 0.000, 22:04:08.044
3, 60218.73, 55389.86, -19488.17, 23259.56, 8491.74, 39000.73, 8969.13, 3612.56, 0.000, 0.000, 0.000, 22:04:08.044
4, 60190.54, 55368.00, -19512.63, 23233.88, 8458.50, 38974.13, 8943.51, 3585.91, 0.000, 0.000, 0.000, 22:04:08.044
5, 60187.97, 55370.61, -19505.41, 23238.86, 8441.20, 38951.51, 8949.57, 3588.97, 0.000, 0.000, 0.000, 22:04:08.044
6, 60219.84, 55396.45, -19477.73, 23264.54, 8442.34, 38946.19, 8968.28, 3611.62, 0.000, 0.000, 0.000, 22:04:08.044
7, 60246.91, 55415.52, -19463.05, 23278.18, 8470.39, 38974.58, 8982.85, 3625.52, 0.000, 0.000, 0.000, 22:04:08.044
8, 60226.91, 55421.13, -19491.28, 23253.61, 8481.68, 39002.52, 8961.95, 3614.12, 0.006, 0.908, 0.468, 22:04:08.045
9, 60201.70, 55383.69, -19520.67, 23226.88, 8451.89, 38978.51, 8933.68, 3593.13, 0.000, 0.000, 0.000, 22:04:08.050
10, 60173.38, 55365.40, -19521.14, 23227.24, 8428.80, 38955.76, 8927.60, 3585.58, 0.000, 0.000, 0.000, 22:04:08.050
11, 60143.54, 55387.69, -19495.82, 23250.91, 8428.33, 38942.68, 8950.53, 3613.52, 0.000, 0.000, 0.000, 22:04:08.050
12, 60152.52, 55392.52, -19469.96, 23275.74, 8475.89, 38979.72, 8986.36, 3655.25, 0.000, 0.000, 0.000, 22:04:08.050
13, 60163.32, 55368.11, -19497.22, 23249.19, 8492.79, 39009.63, 8965.58, 3642.24, 0.000, 0.000, 0.000, 22:04:08.051
14, 60162.60, 55342.22, -19524.79, 23217.61, 8463.91, 38982.94, 8942.24, 3613.14, 0.000, 0.000, 0.000, 22:04:08.051
15, 60164.57, 55359.59, -19521.66, 23213.29, 8447.66, 38958.66, 8944.14, 3610.43, 0.000, 0.000, 0.000, 22:04:08.051
16, 60180.30, 55390.64, -19493.67, 23232.49, 8452.49, 38943.67, 8966.78, 3629.05, 0.000, 0.000, 0.000, 22:04:08.051
17, 60201.58, 55392.40, -19466.63, 23255.67, 8489.93, 38977.89, 8993.56, 3654.17, 0.000, 0.000, 0.000, 22:04:08.051
18, 60205.52, 55386.91, -19487.03, 23234.03, 8501.91, 39009.67, 8974.31, 3636.87, 0.006, 0.912, 0.472, 22:04:08.051
19, 60175.63, 55371.04, -19512.22, 23205.02, 8469.92, 38982.96, 8946.11, 3605.87, 0.000, 0.000, 0.000, 22:04:08.052
20, 60178.67, 55377.41, -19509.07, 23205.45, 8452.04, 38952.88, 8946.91, 3600.58, 0.000, 0.000, 0.000, 22:04:08.052
21, 60216.18, 55406.73, -19489.96, 23221.45, 8447.24, 38934.35, 8964.37, 3608.58, 0.000, 0.000, 0.000, 22:04:08.052
22, 60225.61, 55418.49, -19468.97, 23240.67, 8480.09, 38967.38, 8990.54, 3631.40, 0.000, 0.000, 0.000, 22:04:08.052
23, 60195.10, 55411.74, -19494.45, 23218.07, 8493.35, 39000.04, 8971.92, 3626.19, 0.000, 0.000, 0.000, 22:04:08.052
24, 60185.22, 55392.96, -19518.71, 23191.83, 8465.79, 38974.69, 8945.70, 3606.79, 0.000, 0.000, 0.000, 22:04:08.053
25, 60199.79, 55416.41, -19512.04, 23194.65, 8452.00, 38950.17, 8946.15, 3594.99, 0.000, 0.000, 0.000, 22:04:08.053
26, 60220.89, 55448.73, -19487.39, 23212.78, 8453.45, 38933.81, 8966.85, 3606.48, 0.000, 0.000, 0.000, 22:04:08.053
27, 60255.70, 55443.63, -19463.94, 23231.87, 8488.16, 38963.87, 8989.04, 3635.98, 0.000, 0.000, 0.000, 22:04:08.053
28, 60236.18, 55431.52, -19484.02, 23212.87, 8502.02, 38993.89, 8965.51, 3627.22, 0.006, 0.904, 0.472, 22:04:08.053
29, 60198.30, 55417.26, -19508.11, 23193.00, 8475.02, 38969.62, 8939.83, 3603.39, 0.000, 0.000, 0.000, 22:04:08.053
30, 60180.44, 55417.24, -19505.41, 23198.70, 8457.86, 38946.55, 8946.98, 3598.97, 0.000, 0.000, 0.000, 22:04:08.054
31, 60192.35, 55443.88, -19484.55, 23220.89, 8456.31, 38939.00, 8966.96, 3619.28, 0.000, 0.000, 0.000, 22:04:08.054
32, 60222.30, 55477.16, -19462.47, 23244.58, 8490.22, 38972.05, 8989.27, 3647.13, 0.000, 0.000, 0.000, 22:04:08.054
33, 60226.57, 55469.79, -19489.80, 23224.31, 8502.96, 39008.75, 8971.34, 3636.36, 0.000, 0.000, 0.000, 22:04:08.054
34, 60219.09, 55444.06, -19524.74, 23192.79, 8468.05, 38982.07, 8942.26, 3610.25, 0.000, 0.000, 0.000, 22:04:08.054
35, 60214.08, 55429.11, -19515.40, 23201.20, 8456.74, 38961.30, 8951.78, 3618.84, 0.000, 0.000, 0.000, 22:04:08.054
36, 60215.38, 55440.01, -19485.63, 23227.55, 8463.15, 38951.87, 8978.09, 3643.47, 0.000, 0.000, 0.000, 22:04:08.054
37, 60248.14, 55456.60, -19462.09, 23249.68, 8496.88, 38981.42, 9002.79, 3668.03, 0.000, 0.000, 0.000, 22:04:08.055
38, 60284.73, 55447.81, -19488.35, 23224.42, 8508.55, 39008.35, 8981.11, 3647.20, 0.008, 0.908, 0.476, 22:04:08.055
39, 60233.48, 55427.56, -19512.83, 23200.26, 8482.22, 38985.09, 8956.97, 3619.51, 0.000, 0.000, 0.000, 22:04:08.055
40, 60175.50, 55424.43, -19505.14, 23209.40, 8470.51, 38967.40, 8962.78, 3621.85, 0.000, 0.000, 0.000, 22:04:08.055
41, 60168.26, 55438.79, -19479.63, 23234.79, 8471.45, 38956.54, 8984.57, 3638.17, 0.000, 0.000, 0.000, 22:04:08.055
42, 60190.32, 55460.96, -19464.41, 23255.11, 8496.03, 38982.02, 9005.47, 3656.77, 0.000, 0.000, 0.000, 22:04:08.055
43, 60223.24, 55458.57, -19487.28, 23235.49, 8507.99, 39012.58, 8986.65, 3640.41, 0.000, 0.000, 0.000, 22:04:08.056
44, 60204.42, 55420.34, -19512.27, 23209.85, 8476.32, 38988.46, 8955.76, 3613.85, 0.000, 0.000, 0.000, 22:04:08.056
45, 60179.75, 55416.88, -19513.70, 23204.48, 8452.36, 38955.87, 8943.51, 3598.70, 0.000, 0.000, 0.000, 22:04:08.056
46, 60192.22, 55442.70, -19487.72, 23225.14, 8452.92, 38939.64, 8963.23, 3608.76, 0.000, 0.000, 0.000, 22:04:08.056
47, 60210.77, 55461.56, -19465.04, 23247.36, 8483.07, 38971.52, 8982.96, 3636.58, 0.000, 0.000, 0.000, 22:04:08.056
48, 60222.62, 55461.18, -19486.90, 23228.33, 8497.26, 39005.09, 8962.65, 3622.14, 0.008, 0.904, 0.474, 22:04:08.056
49, 60219.98, 55448.62, -19515.51, 23201.85, 8468.63, 38982.45, 8932.96, 3591.21, 0.000, 0.000, 0.000, 22:04:08.056
50, 60231.11, 55446.81, -19508.11, 23211.12, 8456.65, 38964.34, 8943.02, 3602.52, 0.000, 0.000, 0.000, 22:04:08.057
51, 60254.60, 55471.73, -19481.49, 23237.10, 8462.37, 38957.68, 8968.21, 3633.48, 0.000, 0.000, 0.000, 22:04:08.057
52, 60248.61, 55485.10, -19464.10, 23250.15, 8490.67, 38977.04, 8984.82, 3646.53, 0.000, 0.000, 0.000, 22:04:08.057
53, 60205.34, 55440.68, -19485.76, 23231.69, 8506.05, 39006.09, 8965.78, 3631.89, 0.000, 0.000, 0.000, 22:04:08.057
54, 60180.46, 55414.40, -19511.42, 23206.72, 8480.32, 38984.93, 8942.22, 3608.22, 0.000, 0.000, 0.000, 22:04:08.057
55, 60179.77, 55408.77, -19510.03, 23206.94, 8462.77, 38963.54, 8943.22, 3605.25, 0.000, 0.000, 0.000, 22:04:08.057
56, 60193.94, 55431.12, -19481.24, 23233.59, 8470.82, 38958.38, 8972.71, 3628.31, 0.000, 0.000, 0.000, 22:04:08.057
57, 60196.06, 55454.21, -19459.00, 23252.92, 8505.26, 38986.45, 9000.33, 3655.69, 0.000, 0.000, 0.000, 22:04:08.058
58, 60204.11, 55450.63, -19484.87, 23224.45, 8515.95, 39011.37, 8980.28, 3642.13, 0.002, 0.902, 0.472, 22:04:08.058
59, 60191.70, 55420.75, -19516.98, 23190.58, 8479.83, 38981.82, 8948.95, 3609.45, 0.000, 0.000, 0.000, 22:04:08.058
60, 60213.56, 55404.16, -19507.93, 23198.29, 8461.99, 38961.08, 8952.90, 3611.57, 0.000, 0.000, 0.000, 22:04:08.058
61, 60212.89, 55425.29, -19483.10, 23223.04, 8465.16, 38949.50, 8974.36, 3630.62, 0.000, 0.000, 0.000, 22:04:08.058
62, 60182.32, 55441.55, -19464.48, 23245.68, 8494.13, 38976.21, 8996.35, 3648.79, 0.000, 0.000, 0.000, 22:04:08.058
63, 60173.78, 55427.99, -19485.33, 23231.75, 8508.12, 39016.73, 8982.85, 3643.13, 0.000, 0.000, 0.000, 22:04:08.058
64, 60164.73, 55399.42, -19519.98, 23200.42, 8471.65, 38998.14, 8948.21, 3622.75, 0.000, 0.000, 0.000, 22:04:08.059
65, 60175.23, 55411.71, -19520.27, 23199.21, 8452.11, 38969.15, 8946.24, 3617.74, 0.000, 0.000, 0.000, 22:04:08.059
66, 60207.28, 55425.06, -19496.91, 23222.68, 8453.03, 38952.99, 8972.75, 3634.48, 0.000, 0.000, 0.000, 22:04:08.059
67, 60214.77, 55455.46, -19469.62, 23248.88, 8489.21, 38978.29, 8996.00, 3656.14, 0.000, 0.000, 0.000, 22:04:08.059
68, 60209.20, 55436.13, -19497.81, 23216.85, 8498.42, 39003.68, 8963.63, 3626.79, 0.004, 0.902, 0.468, 22:04:08.059
69, 60195.84, 55397.75, -19523.15, 23186.22, 8474.51, 38980.66, 8936.36, 3600.44, 0.000, 0.000, 0.000, 22:04:08.060
70, 60147.60, 55398.08, -19523.40, 23183.25, 8453.43, 38951.18, 8926.59, 3601.47, 0.000, 0.000, 0.000, 22:04:08.060
71, 60165.21, 55406.80, -19497.40, 23207.26, 8453.83, 38930.59, 8943.29, 3617.38, 0.000, 0.000, 0.000, 22:04:08.060
72, 60217.52, 55432.64, -19466.27, 23241.86, 8494.96, 38965.01, 8978.27, 3647.04, 0.000, 0.000, 0.000, 22:04:08.060
73, 60209.59, 55432.93, -19491.75, 23224.24, 8511.37, 39004.11, 8962.58, 3633.34, 0.000, 0.000, 0.000, 22:04:08.060
74, 60177.93, 55398.08, -19521.39, 23201.22, 8483.07, 38987.32, 8935.42, 3605.40, 0.000, 0.000, 0.000, 22:04:08.060
75, 60160.10, 55391.84, -19517.81, 23207.03, 8464.81, 38966.60, 8938.46, 3605.69, 0.000, 0.000, 0.000, 22:04:08.061
76, 60166.36, 55406.26, -19502.43, 23220.53, 8457.07, 38947.02, 8952.48, 3616.49, 0.000, 0.000, 0.000, 22:04:08.061
77, 60201.09, 55430.92, -19473.40, 23246.44, 8487.83, 38974.09, 8984.02, 3647.45, 0.000, 0.000, 0.000, 22:04:08.061
78, 60234.06, 55435.07, -19485.11, 23232.27, 8511.45, 39016.62, 8976.55, 3638.22, 0.006, 0.900, 0.468, 22:04:08.061
79, 60222.57, 55427.72, -19518.46, 23192.91, 8481.44, 38993.69, 8946.13, 3608.42, 0.000, 0.000, 0.000, 22:04:08.062
80, 60203.46, 55419.81, -19514.14, 23192.42, 8463.58, 38969.89, 8948.39, 3614.30, 0.000, 0.000, 0.000, 22:04:08.063
81, 60188.62, 55410.38, -19484.19, 23217.85, 8466.57, 38959.94, 8971.99, 3627.69, 0.000, 0.000, 0.000, 22:04:08.063
82, 60210.73, 55403.49, -19458.00, 23244.34, 8499.45, 38983.14, 9000.69, 3650.89, 0.000, 0.000, 0.000, 22:04:08.063
83, 60196.02, 55403.58, -19480.82, 23225.61, 8513.67, 39016.42, 8981.91, 3637.66, 0.000, 0.000, 0.000, 22:04:08.064
84, 60151.14, 55405.01, -19514.46, 23196.73, 8481.68, 38992.15, 8951.38, 3610.88, 0.000, 0.000, 0.000, 22:04:08.064
85, 60151.47, 55402.44, -19517.63, 23197.94, 8458.35, 38964.97, 8948.27, 3609.16, 0.000, 0.000, 0.000, 22:04:08.064
86, 60165.06, 55403.67, -19498.07, 23220.00, 8455.17, 38948.61, 8968.77, 3625.92, 0.000, 0.000, 0.000, 22:04:08.064
87, 60185.85, 55428.95, -19471.88, 23247.33, 8486.40, 38974.60, 8999.17, 3658.33, 0.010, 0.904, 0.470, 22:04:08.065
88, 60205.50, 55417.95, -19488.08, 23235.60, 8506.13, 39017.23, 8990.23, 3658.94, 0.000, 0.000, 0.000, 22:04:08.065
89, 60187.50, 55407.96, -19516.56, 23208.35, 8479.38, 39001.25, 8964.30, 3628.72, 0.000, 0.000, 0.000, 22:04:08.065
90, 60185.38, 55403.09, -19516.09, 23206.38, 8458.79, 38975.74, 8957.48, 3622.46, 0.000, 0.000, 0.000, 22:04:08.517
91, 60213.65, 55413.50, -19494.79, 23224.20, 8455.58, 38956.12, 8965.13, 3630.77, 0.000, 0.000, 0.000, 22:04:08.518
92, 60252.01, 55438.07, -19465.17, 23250.75, 8488.50, 38976.59, 8989.29, 3654.82, 0.000, 0.000, 0.000, 22:04:08.518
93, 60220.05, 55434.43, -19484.89, 23233.32, 8504.53, 39011.37, 8968.55, 3643.36, 0.000, 0.000, 0.000, 22:04:08.518
94, 60182.76, 55418.76, -19519.33, 23199.84, 8474.37, 38986.61, 8936.00, 3608.53, 0.000, 0.000, 0.000, 22:04:08.518
95, 60180.19, 55417.93, -19518.91, 23197.47, 8456.02, 38954.48, 8928.90, 3601.60, 0.000, 0.000, 0.000, 22:04:08.519
96, 60198.68, 55428.26, -19495.86, 23216.60, 8456.74, 38937.99, 8949.26, 3616.98, 0.000, 0.000, 0.000, 22:04:08.519
97, 60223.44, 55446.36, -19470.13, 23244.61, 8489.24, 38969.82, 8980.33, 3650.55, 0.010, 0.908, 0.464, 22:04:08.519
98, 60241.57, 55429.57, -19491.32, 23225.09, 8508.59, 39005.00, 8966.71, 3639.15, 0.000, 0.000, 0.000, 22:04:08.519
99, 60201.83, 55415.74, -19520.96, 23194.34, 8477.86, 38983.30, 8937.66, 3603.91, 0.000, 0.000, 0.000, 22:04:08.519
100, 60171.97, 55401.21, -19522.66, 23193.58, 8452.85, 38956.38, 8932.11, 3594.92, 0.000, 0.000, 0.000, 22:04:08.519
101, 60178.96, 55421.93, -19497.16, 23219.28, 8453.56, 38944.27, 8952.03, 3616.96, 0.000, 0.000, 0.000, 22:04:08.520
102, 60211.98, 55446.94, -19469.62, 23244.16, 8486.46, 38971.11, 8980.28, 3644.99, 0.000, 0.000, 0.000, 22:04:08.520
103, 60218.77, 55444.13, -19483.39, 23229.29, 8513.38, 39010.07, 8978.45, 3642.26, 0.000, 0.000, 0.000, 22:04:08.520
104, 60196.80, 55423.72, -19512.16, 23202.38, 8490.11, 38997.64, 8953.35, 3618.37, 0.000, 0.000, 0.000, 22:04:08.520
105, 60207.19, 55421.33, -19511.69, 23199.95, 8471.15, 38975.20, 8947.85, 3605.07, 0.000, 0.000, 0.000, 22:04:08.520
106, 60232.12, 55438.32, -19493.83, 23214.34, 8471.29, 38957.48, 8964.17, 3616.69, 0.000, 0.000, 0.000, 22:04:08.520
107, 60229.19, 55446.41, -19468.01, 23241.21, 8502.83, 38983.48, 8994.86, 3649.41, 0.006, 0.904, 0.468, 22:04:08.520
108, 60191.39, 55401.50, -19494.23, 23223.30, 8515.32, 39020.13, 8982.85, 3639.96, 0.000, 0.000, 0.000, 22:04:08.521
109, 60174.83, 55373.72, -19528.36, 23190.89, 8484.07, 38996.62, 8952.75, 3599.75, 0.000, 0.000, 0.000, 22:04:08.521
110, 60201.20, 55390.17, -19525.52, 23194.70, 8464.74, 38970.71, 8954.76, 3600.84, 0.000, 0.000, 0.000, 22:04:08.521
111, 60187.64, 55413.01, -19499.64, 23220.51, 8463.62, 38960.23, 8980.44, 3633.25, 0.000, 0.000, 0.000, 22:04:08.521
112, 60172.37, 55425.84, -19469.87, 23251.96, 8491.56, 38988.39, 9011.46, 3673.87, 0.000, 0.000, 0.000, 22:04:08.521
113, 60195.01, 55432.08, -19489.63, 23238.97, 8507.05, 39026.79, 8991.86, 3664.23, 0.000, 0.000, 0.000, 22:04:08.521
114, 60248.57, 55406.75, -19519.22, 23212.69, 8476.81, 39005.43, 8958.89, 3634.01, 0.000, 0.000, 0.000, 22:04:08.521
115, 60222.04, 55406.04, -19518.32, 23215.55, 8455.08, 38980.23, 8951.58, 3628.34, 0.000, 0.000, 0.000, 22:04:08.522
116, 60171.95, 55432.68, -19492.60, 23237.48, 8448.85, 38962.00, 8961.78, 3638.15, 0.000, 0.000, 0.000, 22:04:08.524
117, 60194.45, 55433.80, -19471.01, 23255.89, 8469.03, 38974.98, 8970.45, 3648.36, 0.004, 0.900, 0.470, 22:04:08.525
118, 60213.68, 55408.81, -19485.83, 23240.76, 8489.64, 39008.84, 8955.87, 3635.69, 0.000, 0.000, 0.000, 22:04:08.525
119, 60186.79, 55395.02, -19519.93, 23207.66, 8461.70, 38988.77, 8923.00, 3600.84, 0.000, 0.000, 0.000, 22:04:08.525
120, 60179.70, 55394.01, -19528.47, 23196.37, 8438.07, 38955.27, 8912.22, 3584.73, 0.000, 0.000, 0.000, 22:04:08.525
121, 60194.59, 55431.90, -19505.03, 23214.25, 8439.75, 38939.93, 8931.56, 3596.26, 0.000, 0.000, 0.000, 22:04:08.525
122, 60212.56, 55450.68, -19473.08, 23245.84, 8475.11, 38968.43, 8964.52, 3628.43, 0.000, 0.000, 0.000, 22:04:08.525
123, 60216.96, 55431.65, -19488.89, 23234.71, 8498.87, 39011.14, 8956.90, 3626.39, 0.000, 0.000, 0.000, 22:04:08.526
124, 60214.91, 55419.00, -19518.04, 23205.83, 8476.07, 38990.45, 8932.90, 3595.75, 0.000, 0.000, 0.000, 22:04:08.526
125, 60220.71, 55432.84, -19513.18, 23207.05, 8459.51, 38962.75, 8938.08, 3596.37, 0.000, 0.000, 0.000, 22:04:08.526
126, 60220.83, 55440.91, -19479.61, 23232.13, 8465.14, 38955.91, 8968.12, 3626.66, 0.000, 0.000, 0.000, 22:04:08.526
127, 60251.65, 55471.73, -19447.78, 23260.63, 8503.01, 38981.48, 9007.91, 3657.75, 0.000, 0.904, 0.470, 22:04:08.526
128, 60248.48, 55465.14, -19469.38, 23243.33, 8526.50, 39020.69, 8997.76, 3647.89, 0.000, 0.000, 0.000, 22:04:08.526
129, 60199.68, 55408.72, -19501.49, 23211.62, 8501.55, 39012.82, 8967.12, 3627.08, 0.000, 0.000, 0.000, 22:04:08.526
130, 60195.57, 55382.88, -19501.79, 23208.15, 8483.13, 38990.00, 8966.25, 3618.75, 0.000, 0.000, 0.000, 22:04:08.527
131, 60199.39, 55399.64, -19484.51, 23222.57, 8482.24, 38972.34, 8990.23, 3625.41, 0.000, 0.000, 0.000, 22:04:08.527
132, 60184.17, 55422.31, -19462.29, 23244.94, 8506.29, 38987.10, 9013.25, 3641.86, 0.000, 0.000, 0.000, 22:04:08.527
133, 60210.19, 55427.38, -19480.64, 23228.47, 8524.31, 39023.66, 8996.22, 3634.33, 0.000, 0.000, 0.000, 22:04:08.527
134, 60207.75, 55415.34, -19514.57, 23195.01, 8493.71, 39008.06, 8957.22, 3607.33, 0.000, 0.000, 0.000, 22:04:08.527
135, 60190.05, 55411.94, -19513.50, 23198.29, 8470.55, 38982.67, 8953.55, 3605.47, 0.000, 0.000, 0.000, 22:04:08.527
136, 60192.38, 55425.55, -19483.84, 23232.74, 8472.18, 38972.01, 8978.94, 3629.07, 0.000, 0.000, 0.000, 22:04:08.527
137, 60193.63, 55431.70, -19457.46, 23264.14, 8492.57, 38994.05, 9004.27, 3654.26, 0.006, 0.904, 0.468, 22:04:08.528
138, 60196.64, 55418.22, -19474.98, 23250.71, 8502.65, 39035.87, 8982.92, 3647.76, 0.000, 0.000, 0.000, 22:04:08.528
139, 60205.38, 55408.77, -19512.87, 23213.43, 8464.27, 39012.51, 8936.07, 3611.35, 0.000, 0.000, 0.000, 22:04:08.528
140, 60242.49, 55416.75, -19513.56, 23210.72, 8440.09, 38977.39, 8925.30, 3601.65, 0.000, 0.000, 0.000, 22:04:08.528
141, 60228.09, 55431.83, -19489.51, 23233.03, 8437.63, 38956.72, 8941.88, 3616.15, 0.000, 0.000, 0.000, 22:04:08.529
142, 60222.06, 55441.91, -19462.56, 23262.82, 8462.19, 38974.94, 8964.61, 3639.06, 0.000, 0.000, 0.000, 22:04:08.531
143, 60244.01, 55437.18, -19479.99, 23251.24, 8480.81, 39007.39, 8948.12, 3625.52, 0.000, 0.000, 0.000, 22:04:08.531
144, 60215.91, 55428.17, -19516.45, 23215.06, 8448.91, 38981.71, 8914.28, 3588.82, 0.000, 0.000, 0.000, 22:04:08.531
145, 60201.00, 55428.39, -19514.06, 23216.46, 8432.26, 38961.17, 8917.92, 3587.48, 0.000, 0.000, 0.000, 22:04:08.531
146, 60234.73, 55466.88, -19491.66, 23235.67, 8433.04, 38946.59, 8938.91, 3601.98, 0.000, 0.000, 0.000, 22:04:08.533
147, 60248.01, 55470.77, -19460.41, 23266.11, 8462.68, 38967.58, 8970.29, 3627.33, 0.006, 0.902, 0.472, 22:04:08.533
148, 60214.95, 55432.35, -19470.04, 23256.86, 8490.58, 39002.25, 8964.30, 3621.07, 0.000, 0.000, 0.000, 22:04:08.534
149, 60196.22, 55417.66, -19495.41, 23231.24, 8475.87, 38991.01, 8941.95, 3597.13, 0.000, 0.000, 0.000, 22:04:08.534
150, 60221.74, 55432.30, -19501.65, 23224.36, 8457.21, 38970.96, 8936.90, 3590.14, 0.000, 0.000, 0.000, 22:04:08.534
151, 60238.82, 55437.93, -19489.63, 23236.94, 8451.04, 38954.30, 8951.87, 3606.05, 0.000, 0.000, 0.000, 22:04:08.534
152, 60217.41, 55431.68, -19469.08, 23258.80, 8476.50, 38972.05, 8982.07, 3644.09, 0.000, 0.000, 0.000, 22:04:08.534
153, 60203.77, 55414.29, -19481.69, 23247.11, 8510.34, 39017.63, 8991.23, 3652.36, 0.000, 0.000, 0.000, 22:04:08.534
154, 60186.27, 55386.19, -19516.45, 23215.79, 8485.08, 39006.30, 8960.01, 3624.60, 0.000, 0.000, 0.000, 22:04:08.534
155, 60178.36, 55395.91, -19519.31, 23214.50, 8461.70, 38982.31, 8952.52, 3616.74, 0.000, 0.000, 0.000, 22:04:08.534
156, 60189.29, 55415.85, -19501.36, 23228.31, 8455.22, 38962.40, 8963.09, 3621.54, 0.012, 0.904, 0.476, 22:04:08.534
157, 60224.92, 55444.57, -19472.53, 23253.86, 8480.34, 38976.70, 8991.50, 3645.41, 0.000, 0.000, 0.000, 22:04:08.534
158, 60249.41, 55453.98, -19486.96, 23242.82, 8505.62, 39020.60, 8987.50, 3648.10, 0.000, 0.000, 0.000, 22:04:08.534
159, 60227.00, 55437.78, -19512.87, 23222.50, 8488.12, 39019.80, 8968.17, 3632.52, 0.000, 0.000, 0.000, 22:04:08.534
160, 60210.61, 55408.52, -19522.10, 23213.58, 8464.09, 38995.32, 8960.84, 3623.82, 0.000, 0.000, 0.000, 22:04:08.535
161, 60224.40, 55423.54, -19509.27, 23223.13, 8456.58, 38973.21, 8975.77, 3632.20, 0.000, 0.000, 0.000, 22:04:08.535
162, 60245.79, 55453.43, -19484.10, 23247.24, 8481.88, 38993.13, 9000.51, 3656.75, 0.000, 0.000, 0.000, 22:04:08.535
163, 60223.29, 55455.35, -19496.31, 23236.60, 8506.11, 39036.38, 8986.16, 3651.56, 0.000, 0.000, 0.000, 22:04:08.535
164, 60205.09, 55393.70, -19529.75, 23203.61, 8473.08, 39014.14, 8940.34, 3615.46, 0.000, 0.000, 0.000, 22:04:08.535
165, 60214.28, 55375.62, -19535.63, 23197.67, 8438.12, 38976.57, 8916.83, 3597.29, 0.000, 0.000, 0.000, 22:04:08.535
166, 60223.75, 55415.74, -19515.51, 23216.76, 8426.45, 38954.42, 8922.75, 3601.02, 0.010, 0.906, 0.468, 22:04:08.535
167, 60224.14, 55451.30, -19479.05, 23253.86, 8451.15, 38971.20, 8952.01, 3628.96, 0.000, 0.000, 0.000, 22:04:08.535
168, 60194.03, 55430.27, -19494.79, 23240.56, 8468.61, 39004.48, 8935.98, 3617.25, 0.000, 0.000, 0.000, 22:04:08.536
169, 60203.75, 55404.27, -19526.39, 23208.44, 8441.47, 38986.07, 8901.51, 3581.73, 0.000, 0.000, 0.000, 22:04:08.536
170, 60222.82, 55390.26, -19526.91, 23207.30, 8417.47, 38959.31, 8895.01, 3570.45, 0.000, 0.000, 0.000, 22:04:08.536
171, 60218.57, 55426.98, -19497.00, 23233.05, 8420.89, 38941.61, 8919.33, 3586.07, 0.000, 0.000, 0.000, 22:04:08.536
172, 60225.19, 55454.45, -19463.09, 23258.87, 8456.74, 38952.07, 8955.87, 3615.93, 0.000, 0.000, 0.000, 22:04:08.536
173, 60224.52, 55434.85, -19471.77, 23247.33, 8492.99, 38995.77, 8957.62, 3626.19, 0.000, 0.000, 0.000, 22:04:08.536
174, 60208.09, 55404.16, -19508.96, 23209.56, 8472.36, 38982.74, 8928.76, 3601.11, 0.000, 0.000, 0.000, 22:04:08.537
175, 60202.23, 55395.49, -19520.78, 23197.89, 8453.68, 38956.83, 8926.75, 3594.29, 0.000, 0.000, 0.000, 22:04:08.537
176, 60238.38, 55415.74, -19511.89, 23207.10, 8452.49, 38935.84, 8945.03, 3604.24, -0.002, 0.912, 0.466, 22:04:08.537
177, 60251.52, 55438.11, -19485.51, 23231.24, 8482.80, 38958.87, 8982.12, 3640.16, 0.000, 0.000, 0.000, 22:04:08.537
178, 60227.94, 55441.24, -19495.32, 23220.42, 8516.13, 39011.79, 8981.91, 3652.74, 0.000, 0.000, 0.000, 22:04:08.537
179, 60213.92, 55384.69, -19530.60, 23181.04, 8496.66, 39002.83, 8953.62, 3628.60, 0.000, 0.000, 0.000, 22:04:08.538
180, 60171.57, 55358.03, -19529.37, 23176.66, 8478.67, 38984.86, 8963.92, 3629.63, 0.000, 0.000, 0.000, 22:04:08.538
181, 60171.86, 55379.69, -19505.45, 23195.21, 8481.53, 38976.30, 8993.63, 3652.05, 0.000, 0.000, 0.000, 22:04:08.538
182, 60149.73, 55404.25, -19478.94, 23217.16, 8506.94, 38991.75, 9021.50, 3678.07, 0.000, 0.000, 0.000, 22:04:08.538
183, 60167.32, 55404.43, -19488.64, 23206.09, 8533.18, 39035.04, 9012.78, 3671.48, 0.000, 0.000, 0.000, 22:04:08.538
184, 60183.05, 55367.21, -19522.53, 23172.34, 8507.45, 39031.64, 8979.88, 3644.54, 0.000, 0.000, 0.000, 22:04:08.538
185, 60170.80, 55355.95, -19526.51, 23169.44, 8483.18, 39008.13, 8976.71, 3640.41, 0.000, 0.000, 0.000, 22:04:08.538
186, 60208.91, 55374.01, -19509.03, 23186.85, 8478.13, 38995.61, 8992.84, 3659.83, 0.002, 0.896, 0.470, 22:04:08.538
187, 60216.29, 55415.36, -19485.22, 23210.25, 8494.94, 39010.68, 9009.83, 3687.99, 0.000, 0.000, 0.000, 22:04:08.539
188, 60182.56, 55409.04, -19506.10, 23194.72, 8512.13, 39043.89, 8990.65, 3671.52, 0.000, 0.000, 0.000, 22:04:08.539
189, 60184.89, 55376.24, -19546.71, 23160.05, 8482.73, 39024.04, 8952.54, 3631.76, 0.000, 0.000, 0.000, 22:04:08.539
190, 60194.72, 55375.28, -19546.24, 23163.13, 8459.73, 39002.72, 8945.21, 3631.55, 0.000, 0.000, 0.000, 22:04:08.540
191, 60208.40, 55395.15, -19519.33, 23181.57, 8457.41, 38977.17, 8955.32, 3632.34, 0.000, 0.000, 0.000, 22:04:08.540
192, 60231.76, 55436.04, -19486.74, 23203.97, 8481.91, 38976.25, 8974.56, 3641.46, 0.000, 0.000, 0.000, 22:04:08.540
193, 60219.98, 55443.25, -19495.10, 23195.21, 8502.89, 39009.00, 8961.08, 3641.46, 0.000, 0.000, 0.000, 22:04:08.541
194, 60217.30, 55403.25, -19531.60, 23159.67, 8472.88, 38984.91, 8922.08, 3607.97, 0.000, 0.000, 0.000, 22:04:08.541
195, 60229.70, 55426.00, -19524.49, 23168.23, 8453.16, 38960.45, 8925.52, 3603.75, 0.000, 0.000, 0.000, 22:04:08.541
196, 60232.43, 55432.23, -19494.16, 23201.67, 8457.30, 38948.65, 8950.15, 3621.21, 0.004, 0.908, 0.472, 22:04:08.541
197, 60246.31, 55447.86, -19471.30, 23230.61, 8480.14, 38960.68, 8974.02, 3646.08, 0.000, 0.000, 0.000, 22:04:08.542
198, 60240.14, 55451.52, -19488.42, 23218.63, 8500.03, 38997.07, 8965.37, 3652.45, 0.000, 0.000, 0.000, 22:04:08.542
199, 60222.28, 55448.26, -19517.70, 23192.91, 8481.50, 38990.63, 8940.76, 3628.51, 0.000, 0.000, 0.000, 22:04:08.542
200, 60229.72, 55444.66, -19514.10, 23200.28, 8466.33, 38972.03, 8940.36, 3623.40, 0.000, 0.000, 0.000, 22:04:08.543
201, 60260.23, 55452.39, -19492.53, 23220.64, 8463.85, 38960.16, 8958.56, 3633.86, 0.000, 0.000, 0.000, 22:04:08.543
202, 60248.16, 55475.87, -19464.44, 23246.62, 8484.05, 38974.69, 8989.36, 3656.05, 0.000, 0.000, 0.000, 22:04:08.543
203, 60241.53, 55470.46, -19465.29, 23245.93, 8518.32, 39025.12, 8995.55, 3665.73, 0.000, 0.000, 0.000, 22:04:08.543
204, 60240.25, 55440.62, -19499.97, 23210.74, 8497.19, 39020.69, 8963.61, 3639.67, 0.000, 0.000, 0.000, 22:04:08.543
205, 60242.00, 55440.17, -19505.38, 23206.36, 8474.35, 38994.27, 8960.72, 3627.06, 0.000, 0.000, 0.000, 22:04:08.544
206, 60255.68, 55450.90, -19492.53, 23217.61, 8471.91, 38976.37, 8980.35, 3638.73, 0.004, 0.904, 0.474, 22:04:08.544
207, 60268.79, 55450.86, -19473.46, 23236.56, 8494.74, 38990.18, 9012.09, 3666.22, 0.000, 0.000, 0.000, 22:04:08.544
208, 60270.58, 55458.10, -19478.36, 23232.63, 8533.65, 39042.64, 9021.79, 3686.34, 0.000, 0.000, 0.000, 22:04:08.544
209, 60247.34, 55429.82, -19514.68, 23196.68, 8517.42, 39039.51, 8994.79, 3667.32, 0.000, 0.000, 0.000, 22:04:08.544
210, 60195.77, 55411.43, -19522.33, 23191.92, 8493.08, 39015.33, 8990.23, 3659.49, 0.000, 0.000, 0.000, 22:04:08.999
211, 60200.13, 55427.65, -19511.08, 23205.76, 8487.92, 38995.66, 8999.80, 3663.88, 0.000, 0.000, 0.000, 22:04:08.999
212, 60210.79, 55451.05, -19485.67, 23229.45, 8506.98, 39001.36, 9020.58, 3684.53, 0.000, 0.000, 0.000, 22:04:09.000
213, 60225.70, 55440.39, -19494.16, 23221.52, 8529.00, 39041.93, 9008.71, 3680.84, 0.000, 0.000, 0.000, 22:04:09.000
214, 60221.81, 55410.73, -19530.53, 23186.83, 8502.02, 39027.42, 8962.74, 3643.20, 0.000, 0.000, 0.000, 22:04:09.000
215, 60207.75, 55401.10, -19540.72, 23176.70, 8469.54, 38992.57, 8940.14, 3621.97, 0.000, 0.000, 0.000, 22:04:09.000
216, 60243.89, 55436.55, -19521.28, 23192.50, 8457.90, 38972.12, 8944.34, 3619.66, 0.000, 0.910, 0.472, 22:04:09.000
217, 60244.74, 55462.39, -19492.11, 23215.39, 8476.92, 38978.60, 8962.60, 3634.04, 0.000, 0.000, 0.000, 22:04:09.001
218, 60230.93, 55438.29, -19504.56, 23200.86, 8498.11, 39011.39, 8950.24, 3630.50, 0.000, 0.000, 0.000, 22:04:09.001
219, 60250.58, 55424.08, -19537.70, 23166.13, 8469.77, 38994.58, 8917.59, 3601.72, 0.000, 0.000, 0.000, 22:04:09.001
220, 60223.51, 55417.37, -19532.50, 23168.50, 8448.67, 38965.41, 8916.47, 3595.84, 0.000, 0.000, 0.000, 22:04:09.002
221, 60215.04, 55434.67, -19504.78, 23196.10, 8453.29, 38950.91, 8940.79, 3614.14, 0.000, 0.000, 0.000, 22:04:09.002
222, 60256.84, 55464.73, -19472.82, 23229.34, 8477.14, 38962.44, 8973.08, 3641.90, 0.000, 0.000, 0.000, 22:04:09.003
223, 60218.82, 55448.13, -19481.53, 23223.33, 8505.46, 39001.38, 8968.75, 3645.21, 0.000, 0.000, 0.000, 22:04:09.005
224, 60180.46, 55406.39, -19513.12, 23194.29, 8488.16, 38993.15, 8942.78, 3623.98, 0.000, 0.000, 0.000, 22:04:09.005
225, 60201.80, 55409.39, -19511.51, 23196.93, 8471.96, 38975.76, 8948.03, 3623.98, 0.004, 0.914, 0.468, 22:04:09.005
226, 60222.28, 55420.52, -19495.12, 23213.87, 8468.03, 38963.74, 8965.31, 3635.89, 0.000, 0.000, 0.000, 22:04:09.005
227, 60236.12, 55445.36, -19463.03, 23242.42, 8493.84, 38974.20, 8999.88, 3659.92, 0.000, 0.000, 0.000, 22:04:09.006
228, 60251.83, 55447.66, -19465.60, 23240.87, 8531.73, 39023.64, 9003.19, 3663.56, 0.000, 0.000, 0.000, 22:04:09.006
229, 60236.68, 55428.55, -19494.95, 23209.89, 8517.45, 39020.02, 8975.10, 3640.32, 0.000, 0.000, 0.000, 22:04:09.006
230, 60225.16, 55406.89, -19500.11, 23202.94, 8491.05, 38998.14, 8966.36, 3638.55, 0.000, 0.000, 0.000, 22:04:09.006
231, 60245.26, 55432.28, -19481.78, 23220.98, 8486.60, 38985.82, 8982.56, 3651.92, 0.000, 0.000, 0.000, 22:04:09.007
232, 60251.07, 55449.49, -19460.34, 23244.25, 8505.87, 38994.20, 9005.54, 3675.61, 0.000, 0.000, 0.000, 22:04:09.007
233, 60260.03, 55444.35, -19468.48, 23239.91, 8537.23, 39041.25, 9003.60, 3682.74, 0.000, 0.000, 0.000, 22:04:09.007
234, 60218.28, 55420.95, -19502.37, 23208.60, 8523.86, 39041.81, 8976.86, 3658.27, 0.000, 0.000, 0.000, 22:04:09.007
235, 60186.41, 55418.55, -19511.20, 23202.09, 8496.57, 39018.75, 8965.13, 3648.27, 0.002, 0.908, 0.466, 22:04:09.007
236, 60208.00, 55425.48, -19494.41, 23218.77, 8487.45, 39003.32, 8978.56, 3660.72, 0.000, 0.000, 0.000, 22:04:09.007
237, 60222.30, 55422.67, -19471.56, 23242.44, 8506.05, 39014.30, 9006.34, 3682.43, 0.000, 0.000, 0.000, 22:04:09.008
238, 60222.75, 55417.04, -19484.06, 23232.11, 8531.62, 39055.80, 9000.42, 3681.02, 0.000, 0.000, 0.000, 22:04:09.008
239, 60215.62, 55403.36, -19517.27, 23201.09, 8511.45, 39047.85, 8971.48, 3653.30, 0.000, 0.000, 0.000, 22:04:09.008
240, 60225.19, 55418.33, -19520.31, 23200.35, 8491.76, 39024.18, 8970.51, 3650.67, 0.000, 0.000, 0.000, 22:04:09.008
241, 60250.49, 55447.73, -19506.84, 23213.69, 8485.24, 39002.38, 8982.81, 3660.08, 0.000, 0.000, 0.000, 22:04:09.008
242, 60248.66, 55453.85, -19484.10, 23233.41, 8493.55, 39003.66, 9003.26, 3679.19, 0.000, 0.000, 0.000, 22:04:09.009
243, 60254.58, 55425.02, -19493.78, 23223.82, 8515.88, 39041.01, 8993.69, 3674.83, 0.000, 0.000, 0.000, 22:04:09.009
244, 60215.17, 55392.54, -19530.64, 23185.55, 8491.52, 39023.11, 8954.82, 3634.71, 0.000, 0.000, 0.000, 22:04:09.009
245, 60185.27, 55385.65, -19541.01, 23177.19, 8460.89, 38994.58, 8934.53, 3613.03, 0.004, 0.902, 0.466, 22:04:09.009
246, 60197.00, 55395.06, -19528.27, 23190.36, 8445.67, 38969.44, 8935.49, 3612.65, 0.000, 0.000, 0.000, 22:04:09.010
247, 60222.88, 55411.65, -19496.11, 23220.18, 8462.84, 38971.88, 8965.69, 3642.02, 0.000, 0.000, 0.000, 22:04:09.010
248, 60256.50, 55427.50, -19490.25, 23223.64, 8498.38, 39022.10, 8974.09, 3662.42, 0.000, 0.000, 0.000, 22:04:09.010
249, 60267.14, 55423.88, -19512.87, 23200.13, 8488.41, 39018.97, 8950.17, 3641.30, 0.000, 0.000, 0.000, 22:04:09.010
250, 60197.47, 55412.86, -19515.40, 23199.93, 8465.92, 38987.99, 8941.57, 3625.88, 0.000, 0.000, 0.000, 22:04:09.010
251, 60192.15, 55428.66, -19496.11, 23217.20, 8460.63, 38967.45, 8954.53, 3633.68, 0.000, 0.000, 0.000, 22:04:09.010
252, 60235.89, 55470.30, -19461.57, 23248.00, 8482.51, 38980.41, 8987.48, 3664.08, 0.000, 0.000, 0.000, 22:04:09.011
253, 60256.81, 55452.95, -19462.33, 23246.78, 8521.56, 39033.50, 8995.97, 3677.53, 0.000, 0.000, 0.000, 22:04:09.011
254, 60235.98, 55396.36, -19499.95, 23209.31, 8506.96, 39030.55, 8969.71, 3647.96, 0.000, 0.000, 0.000, 22:04:09.012
255, 60204.60, 55398.73, -19505.56, 23203.57, 8485.39, 39005.71, 8967.34, 3645.30, 0.008, 0.900, 0.470, 22:04:09.012
0, 60202.14, 55400.54, -19488.75, 23220.09, 8479.42, 38989.82, 8977.38, 3659.49, 0.000, 0.000, 0.000, 22:04:09.012
1, 60212.54, 55424.34, -19458.65, 23252.81, 8497.15, 39001.58, 8999.95, 3685.24, 0.000, 0.000, 0.000, 22:04:09.013
2, 60250.38, 55451.23, -19461.08, 23256.05, 8533.47, 39052.83, 9018.73, 3699.30, 0.000, 0.000, 0.000, 22:04:09.014
3, 60249.66, 55415.09, -19491.17, 23230.10, 8522.81, 39054.71, 8996.49, 3679.83, 0.000, 0.000, 0.000, 22:04:09.014
4, 60230.08, 55413.79, -19496.42, 23230.41, 8501.64, 39036.54, 8991.37, 3676.95, 0.000, 0.000, 0.000, 22:04:09.014
5, 60225.61, 55441.60, -19483.19, 23247.74, 8491.96, 39019.73, 9000.15, 3685.00, 0.000, 0.000, 0.000, 22:04:09.014
6, 60238.71, 55449.78, -19453.64, 23278.80, 8510.07, 39029.52, 9024.65, 3704.62, 0.000, 0.000, 0.000, 22:04:09.014
7, 60270.11, 55449.18, -19464.66, 23270.58, 8536.06, 39076.68, 9018.95, 3704.65, 0.000, 0.000, 0.000, 22:04:09.015
8, 60274.32, 55433.98, -19506.95, 23228.94, 8511.12, 39071.23, 8979.32, 3670.49, 0.000, 0.000, 0.000, 22:04:09.015
9, 60258.71, 55437.82, -19519.49, 23210.65, 8480.88, 39035.93, 8963.56, 3650.08, 0.006, 0.904, 0.472, 22:04:09.015
10, 60224.61, 55434.96, -19506.14, 23219.68, 8476.38, 39011.91, 8973.49, 3653.64, 0.000, 0.000, 0.000, 22:04:09.015
11, 60231.76, 55452.73, -19471.72, 23253.73, 8501.33, 39018.23, 9006.70, 3688.91, 0.000, 0.000, 0.000, 22:04:09.015
12, 60254.94, 55448.84, -19470.43, 23254.60, 8537.49, 39059.36, 9013.52, 3701.36, 0.000, 0.000, 0.000, 22:04:09.015
13, 60238.53, 55415.54, -19505.99, 23217.16, 8517.00, 39051.49, 8979.88, 3663.63, 0.000, 0.000, 0.000, 22:04:09.015
14, 60236.92, 55408.83, -19515.96, 23205.13, 8487.20, 39017.72, 8967.59, 3647.16, 0.000, 0.000, 0.000, 22:04:09.016
15, 60261.84, 55429.62, -19503.62, 23216.20, 8476.85, 38992.37, 8977.11, 3652.81, 0.000, 0.000, 0.000, 22:04:09.016
16, 60281.94, 55460.53, -19479.37, 23241.28, 8489.06, 38991.32, 8999.80, 3672.64, 0.000, 0.000, 0.000, 22:04:09.016
17, 60275.46, 55463.30, -19478.29, 23244.58, 8521.22, 39037.57, 9002.70, 3681.65, 0.000, 0.000, 0.000, 22:04:09.016
18, 60259.30, 55442.56, -19505.65, 23215.30, 8505.38, 39035.69, 8971.34, 3657.80, 0.000, 0.000, 0.000, 22:04:09.016
19, 60272.55, 55433.87, -19514.41, 23203.75, 8473.32, 39005.22, 8953.19, 3642.86, 0.004, 0.904, 0.474, 22:04:09.016
20, 60287.82, 55450.90, -19493.47, 23219.64, 8465.92, 38983.96, 8964.14, 3648.10, 0.000, 0.000, 0.000, 22:04:09.017
21, 60291.17, 55485.59, -19453.59, 23254.40, 8487.72, 38991.25, 8998.43, 3673.82, 0.000, 0.000, 0.000, 22:04:09.017
22, 60265.87, 55472.00, -19454.04, 23253.26, 8519.61, 39033.92, 8997.99, 3675.83, 0.000, 0.000, 0.000, 22:04:09.017
23, 60223.06, 55437.15, -19490.81, 23216.11, 8503.61, 39030.41, 8969.33, 3643.74, 0.000, 0.000, 0.000, 22:04:09.017
24, 60214.08, 55403.00, -19503.73, 23206.90, 8474.60, 39003.03, 8956.48, 3639.15, 0.000, 0.000, 0.000, 22:04:09.017
25, 60236.45, 55407.56, -19485.02, 23226.05, 8469.57, 38988.19, 8968.41, 3655.49, 0.000, 0.000, 0.000, 22:04:09.017
26, 60260.93, 55439.16, -19455.88, 23253.37, 8487.14, 38992.39, 8994.92, 3674.54, 0.000, 0.000, 0.000, 22:04:09.017
27, 60260.26, 55447.70, -19462.63, 23251.27, 8520.40, 39040.63, 9006.14, 3685.38, 0.000, 0.000, 0.000, 22:04:09.018
28, 60243.00, 55434.92, -19497.07, 23219.35, 8506.96, 39046.17, 8980.95, 3660.63, 0.000, 0.000, 0.000, 22:04:09.018
29, 60233.73, 55410.75, -19510.30, 23213.27, 8475.74, 39025.16, 8964.14, 3650.38, 0.000, 0.904, 0.476, 22:04:09.018
30, 60251.90, 55416.52, -19487.50, 23238.04, 8472.43, 39010.21, 8982.63, 3663.03, 0.000, 0.000, 0.000, 22:04:09.018
31, 60249.19, 55434.34, -19463.79, 23261.35, 8483.67, 39009.74, 9004.42, 3681.33, 0.000, 0.000, 0.000, 22:04:09.019
32, 60251.90, 55453.43, -19469.02, 23255.94, 8514.29, 39052.86, 9006.93, 3697.85, 0.000, 0.000, 0.000, 22:04:09.019
33, 60288.04, 55439.57, -19506.34, 23217.43, 8499.09, 39048.45, 8973.38, 3668.28, 0.000, 0.000, 0.000, 22:04:09.019
34, 60280.30, 55415.88, -19515.66, 23207.19, 8472.18, 39018.57, 8962.02, 3650.80, 0.000, 0.000, 0.000, 22:04:09.019
35, 60225.19, 55407.29, -19492.93, 23226.52, 8472.34, 39001.89, 8980.89, 3660.79, 0.000, 0.000, 0.000, 22:04:09.019
36, 60220.38, 55409.64, -19467.38, 23250.60, 8489.75, 39004.69, 9011.51, 3681.53, 0.000, 0.000, 0.000, 22:04:09.019
37, 60233.34, 55414.18, -19470.65, 23249.43, 8522.12, 39047.69, 9014.64, 3691.52, 0.000, 0.000, 0.000, 22:04:09.020
38, 60208.29, 55403.54, -19511.96, 23211.46, 8503.68, 39044.94, 8974.49, 3658.31, 0.006, 0.904, 0.474, 22:04:09.020
39, 60205.70, 55380.87, -19527.29, 23197.69, 8467.04, 39010.43, 8953.35, 3635.80, 0.000, 0.000, 0.000, 22:04:09.020
40, 60208.36, 55371.48, -19508.40, 23214.14, 8457.92, 38992.35, 8965.37, 3649.32, 0.000, 0.000, 0.000, 22:04:09.020
41, 60227.69, 55398.55, -19473.73, 23249.10, 8473.34, 38999.50, 8991.30, 3677.17, 0.000, 0.000, 0.000, 22:04:09.020
42, 60260.39, 55421.95, -19470.65, 23254.40, 8503.34, 39042.59, 8989.58, 3676.50, 0.000, 0.000, 0.000, 22:04:09.020
43, 60280.75, 55416.14, -19503.28, 23222.88, 8489.10, 39039.40, 8954.33, 3643.47, 0.000, 0.000, 0.000, 22:04:09.020
44, 60300.49, 55409.17, -19516.16, 23209.69, 8456.31, 39006.50, 8935.15, 3626.19, 0.000, 0.000, 0.000, 22:04:09.021
45, 60213.43, 55407.76, -19508.91, 23214.59, 8440.67, 38973.89, 8938.93, 3621.90, 0.000, 0.000, 0.000, 22:04:09.021
46, 60179.81, 55395.98, -19476.13, 23243.94, 8464.14, 38979.34, 8970.67, 3649.61, 0.000, 0.000, 0.000, 22:04:09.021
47, 60205.16, 55395.31, -19474.56, 23244.49, 8503.36, 39024.60, 8980.62, 3661.91, 0.000, 0.000, 0.000, 22:04:09.021
48, 60208.71, 55382.35, -19505.81, 23217.22, 8491.56, 39028.92, 8958.53, 3644.05, 0.010, 0.904, 0.474, 22:04:09.021
49, 60206.61, 55383.33, -19508.65, 23215.28, 8469.17, 39005.54, 8957.84, 3635.67, 0.000, 0.000, 0.000, 22:04:09.021
50, 60221.66, 55411.83, -19490.56, 23233.83, 8466.33, 38993.27, 8974.65, 3646.20, 0.000, 0.000, 0.000, 22:04:09.022
51, 60241.21, 55436.39, -19462.76, 23262.98, 8483.92, 39003.68, 9006.72, 3687.37, 0.000, 0.000, 0.000, 22:04:09.022
52, 60252.03, 55416.50, -19466.96, 23260.86, 8513.91, 39046.15, 9009.05, 3703.68, 0.000, 0.000, 0.000, 22:04:09.022
53, 60281.51, 55406.38, -19496.20, 23232.04, 8503.34, 39047.94, 8978.83, 3672.68, 0.000, 0.000, 0.000, 22:04:09.022
54, 60276.62, 55398.44, -19508.78, 23220.20, 8472.25, 39020.15, 8962.16, 3652.16, 0.000, 0.000, 0.000, 22:04:09.022
55, 60240.59, 55424.75, -19494.39, 23232.04, 8462.19, 38994.20, 8977.56, 3658.06, 0.000, 0.000, 0.000, 22:04:09.026
56, 60238.48, 55431.16, -19465.66, 23260.77, 8478.46, 38997.60, 9011.15, 3681.53, 0.000, 0.000, 0.000, 22:04:09.026
57, 60249.64, 55420.77, -19462.38, 23267.34, 8515.46, 39049.79, 9019.55, 3692.42, 0.000, 0.000, 0.000, 22:04:09.026
58, 60240.36, 55387.78, -19497.36, 23235.58, 8503.21, 39056.34, 8985.80, 3678.00, 0.006, 0.902, 0.474, 22:04:09.026
59, 60235.89, 55382.99, -19510.75, 23221.99, 8476.32, 39029.41, 8972.12, 3666.24, 0.000, 0.000, 0.000, 22:04:09.027
60, 60247.36, 55409.26, -19500.64, 23229.03, 8463.58, 39002.81, 8975.03, 3662.47, 0.000, 0.000, 0.000, 22:04:09.027
61, 60264.12, 55435.43, -19468.01, 23258.08, 8479.40, 39003.66, 9004.27, 3687.61, 0.000, 0.000, 0.000, 22:04:09.027
62, 60267.74, 55419.38, -19465.26, 23260.92, 8509.49, 39044.72, 9005.05, 3691.66, 0.000, 0.000, 0.000, 22:04:09.027
63, 60240.96, 55400.72, -19501.03, 23226.32, 8487.63, 39041.25, 8963.67, 3657.39, 0.000, 0.000, 0.000, 22:04:09.027
64, 60225.52, 55429.22, -19512.31, 23215.79, 8455.11, 39013.27, 8943.47, 3638.77, 0.000, 0.000, 0.000, 22:04:09.027
65, 60237.30, 55456.78, -19498.88, 23229.47, 8446.97, 38990.76, 8950.55, 3636.32, 0.000, 0.000, 0.000, 22:04:09.028
66, 60280.11, 55442.81, -19468.17, 23260.81, 8456.65, 38991.93, 8972.91, 3662.18, 0.000, 0.000, 0.000, 22:04:09.029
67, 60287.79, 55416.54, -19469.49, 23263.90, 8489.06, 39036.16, 8977.49, 3674.02, 0.000, 0.000, 0.000, 22:04:09.030
68, 60267.30, 55393.97, -19507.78, 23229.79, 8478.87, 39038.75, 8947.43, 3642.71, 0.006, 0.906, 0.474, 22:04:09.030
69, 60248.16, 55380.40, -19530.55, 23207.95, 8442.92, 39004.38, 8925.23, 3615.37, 0.000, 0.000, 0.000, 22:04:09.031
70, 60264.59, 55396.90, -19512.04, 23223.26, 8439.35, 38982.45, 8943.92, 3623.75, 0.000, 0.000, 0.000, 22:04:09.032
71, 60284.35, 55438.43, -19473.71, 23255.04, 8463.69, 38990.80, 8984.19, 3674.72, 0.000, 0.000, 0.000, 22:04:09.032
72, 60271.12, 55447.66, -19468.08, 23257.79, 8506.02, 39037.52, 9000.31, 3693.83, 0.000, 0.000, 0.000, 22:04:09.033
73, 60239.80, 55424.86, -19496.96, 23226.32, 8502.36, 39042.93, 8976.44, 3667.32, 0.000, 0.000, 0.000, 22:04:09.033
74, 60210.64, 55396.20, -19516.13, 23204.98, 8468.92, 39006.74, 8960.68, 3645.01, 0.000, 0.000, 0.000, 22:04:09.478
75, 60241.57, 55400.52, -19500.13, 23217.52, 8463.02, 38988.95, 8974.74, 3653.35, 0.000, 0.000, 0.000, 22:04:09.478
76, 60300.82, 55431.18, -19466.00, 23250.78, 8481.75, 39000.20, 9008.78, 3684.35, 0.000, 0.000, 0.000, 22:04:09.478
77, 60288.82, 55443.88, -19465.82, 23254.84, 8519.19, 39043.63, 9015.49, 3696.35, 0.000, 0.000, 0.000, 22:04:09.478
78, 60264.08, 55431.03, -19499.15, 23220.31, 8510.18, 39043.94, 8985.20, 3669.17, 0.010, 0.902, 0.472, 22:04:09.478
79, 60247.61, 55415.70, -19508.11, 23211.50, 8483.54, 39019.84, 8978.94, 3658.94, 0.000, 0.000, 0.000, 22:04:09.478
80, 60261.69, 55435.36, -19484.08, 23238.04, 8483.94, 39009.98, 9004.65, 3677.73, 0.000, 0.000, 0.000, 22:04:09.479
81, 60269.60, 55455.17, -19451.27, 23272.59, 8499.79, 39010.92, 9028.43, 3706.61, 0.000, 0.000, 0.000, 22:04:09.479
82, 60280.48, 55444.44, -19444.07, 23277.17, 8534.32, 39054.20, 9029.30, 3714.39, 0.000, 0.000, 0.000, 22:04:09.479
83, 60289.22, 55417.97, -19476.73, 23241.77, 8521.13, 39056.68, 8988.84, 3681.69, 0.000, 0.000, 0.000, 22:04:09.479
84, 60253.66, 55405.93, -19501.29, 23219.46, 8478.55, 39020.63, 8956.05, 3652.79, 0.000, 0.000, 0.000, 22:04:09.479
85, 60267.66, 55441.06, -19483.52, 23236.49, 8470.15, 39000.06, 8965.84, 3650.15, 0.000, 0.000, 0.000, 22:04:09.480
86, 60303.91, 55458.81, -19455.49, 23265.66, 8479.63, 39003.01, 8993.89, 3673.11, 0.000, 0.000, 0.000, 22:04:09.480
87, 60324.85, 55464.76, -19462.89, 23267.05, 8513.82, 39047.85, 8999.80, 3700.96, 0.000, 0.000, 0.000, 22:04:09.480
88, 60302.46, 55444.08, -19506.63, 23222.77, 8493.28, 39043.24, 8958.22, 3678.67, 0.004, 0.908, 0.472, 22:04:09.480
89, 60291.41, 55431.70, -19512.80, 23211.68, 8460.96, 39018.46, 8947.16, 3667.70, 0.000, 0.000, 0.000, 22:04:09.481
90, 60282.47, 55461.07, -19497.45, 23227.69, 8458.30, 39008.22, 8963.97, 3674.96, 0.000, 0.000, 0.000, 22:04:09.481
91, 60298.03, 55484.76, -19470.65, 23249.12, 8468.61, 39004.71, 8989.16, 3690.79, 0.000, 0.000, 0.000, 22:04:09.482
92, 60300.55, 55454.99, -19468.73, 23248.29, 8500.70, 39047.07, 8994.10, 3696.40, 0.000, 0.000, 0.000, 22:04:09.482
93, 60286.14, 55422.78, -19509.92, 23203.88, 8483.78, 39044.79, 8955.96, 3656.34, 0.000, 0.000, 0.000, 22:04:09.483
94, 60280.26, 55432.73, -19521.12, 23187.88, 8456.47, 39016.06, 8946.75, 3647.42, 0.000, 0.000, 0.000, 22:04:09.483
95, 60270.20, 55443.63, -19507.17, 23198.05, 8454.12, 38997.31, 8962.80, 3660.12, 0.000, 0.000, 0.000, 22:04:09.483
96, 60287.23, 55459.21, -19476.91, 23225.88, 8472.27, 38998.92, 8993.49, 3685.67, 0.000, 0.000, 0.000, 22:04:09.483
97, 60305.59, 55467.39, -19470.27, 23235.13, 8513.24, 39054.06, 9006.61, 3710.41, 0.000, 0.000, 0.000, 22:04:09.483
98, 60307.78, 55466.43, -19495.30, 23204.24, 8514.90, 39065.77, 8987.61, 3688.33, 0.000, 0.898, 0.470, 22:04:09.483
99, 60285.40, 55442.70, -19516.02, 23181.57, 8483.36, 39032.65, 8973.13, 3666.89, 0.000, 0.000, 0.000, 22:04:09.483
100, 60280.17, 55428.95, -19500.18, 23193.98, 8475.33, 39014.12, 8987.84, 3676.01, 0.000, 0.000, 0.000, 22:04:09.484
101, 60316.79, 55446.16, -19463.83, 23228.40, 8496.17, 39018.86, 9021.03, 3708.42, 0.000, 0.000, 0.000, 22:04:09.484
102, 60311.80, 55456.91, -19458.73, 23233.10, 8537.00, 39067.11, 9031.09, 3729.25, 0.000, 0.000, 0.000, 22:04:09.484
103, 60278.34, 55452.89, -19490.65, 23203.59, 8533.56, 39076.64, 9006.05, 3704.73, 0.000, 0.000, 0.000, 22:04:09.484
104, 60280.21, 55435.03, -19507.26, 23193.00, 8506.09, 39051.04, 8991.79, 3688.13, 0.000, 0.000, 0.000, 22:04:09.484
105, 60298.30, 55440.80, -19493.07, 23205.42, 8501.28, 39031.87, 9002.59, 3695.50, 0.000, 0.000, 0.000, 22:04:09.484
106, 60302.28, 55451.26, -19462.22, 23233.27, 8514.07, 39030.75, 9030.06, 3721.63, 0.000, 0.000, 0.000, 22:04:09.484
107, 60271.52, 55443.19, -19454.64, 23242.82, 8553.48, 39074.16, 9043.56, 3737.30, 0.000, 0.000, 0.000, 22:04:09.485
108, 60256.12, 55416.75, -19495.28, 23208.35, 8538.61, 39075.23, 9005.21, 3708.44, 0.002, 0.902, 0.474, 22:04:09.487
109, 60248.99, 55414.27, -19508.38, 23200.46, 8504.35, 39046.69, 8986.94, 3688.53, 0.000, 0.000, 0.000, 22:04:09.487
110, 60257.86, 55419.50, -19493.56, 23214.92, 8492.05, 39024.25, 8990.85, 3690.00, 0.000, 0.000, 0.000, 22:04:09.488
111, 60277.60, 55438.09, -19465.15, 23242.06, 8496.26, 39016.93, 9009.29, 3706.19, 0.000, 0.000, 0.000, 22:04:09.488
112, 60292.15, 55452.15, -19468.73, 23242.55, 8519.34, 39053.10, 9007.15, 3708.58, 0.000, 0.000, 0.000, 22:04:09.488
113, 60298.39, 55437.22, -19500.06, 23215.01, 8509.04, 39055.85, 8977.51, 3680.01, 0.000, 0.000, 0.000, 22:04:09.488
114, 60280.55, 55416.50, -19519.53, 23199.23, 8473.57, 39024.54, 8953.28, 3655.99, 0.000, 0.000, 0.000, 22:04:09.488
115, 60264.86, 55402.21, -19506.93, 23212.53, 8462.39, 39006.03, 8958.31, 3664.97, 0.000, 0.000, 0.000, 22:04:09.488
116, 60270.74, 55412.92, -19474.61, 23240.63, 8474.42, 39005.27, 8985.29, 3692.80, 0.000, 0.000, 0.000, 22:04:09.488
117, 60272.71, 55433.64, -19463.52, 23248.92, 8511.86, 39051.47, 9000.24, 3707.89, 0.006, 0.900, 0.472, 22:04:09.489
118, 60259.81, 55420.34, -19503.62, 23206.68, 8496.32, 39048.43, 8960.97, 3667.99, 0.000, 0.000, 0.000, 22:04:09.489
119, 60252.05, 55404.36, -19519.60, 23191.12, 8461.34, 39019.30, 8938.62, 3656.92, 0.000, 0.000, 0.000, 22:04:09.489
120, 60260.95, 55399.24, -19507.95, 23202.32, 8450.17, 39000.20, 8944.88, 3662.58, 0.000, 0.000, 0.000, 22:04:09.489
121, 60278.52, 55411.16, -19479.59, 23231.29, 8461.54, 39000.08, 8974.47, 3686.90, 0.000, 0.000, 0.000, 22:04:09.489
122, 60269.64, 55417.62, -19466.85, 23247.24, 8508.15, 39050.06, 8998.28, 3706.39, 0.000, 0.000, 0.000, 22:04:09.489
123, 60242.73, 55393.59, -19504.65, 23212.06, 8505.35, 39057.30, 8973.02, 3681.91, 0.000, 0.000, 0.000, 22:04:09.489
124, 60227.54, 55372.91, -19519.31, 23195.03, 8481.95, 39028.34, 8971.10, 3669.11, 0.000, 0.000, 0.000, 22:04:09.489
125, 60223.69, 55378.37, -19504.98, 23202.41, 8477.64, 39006.95, 8983.48, 3675.54, 0.000, 0.000, 0.000, 22:04:09.490
126, 60233.77, 55407.20, -19474.54, 23227.13, 8493.77, 39008.35, 9012.16, 3702.37, 0.000, 0.000, 0.000, 22:04:09.490
127, 60243.61, 55422.64, -19469.17, 23230.44, 8530.01, 39049.64, 9025.83, 3718.61, 0.002, 0.900, 0.470, 22:04:09.490
128, 60238.53, 55372.58, -19498.81, 23197.36, 8527.53, 39056.86, 8997.36, 3687.55, 0.000, 0.000, 0.000, 22:04:09.490
129, 60205.29, 55351.95, -19521.59, 23174.40, 8492.95, 39027.11, 8971.07, 3660.19, 0.000, 0.000, 0.000, 22:04:09.490
130, 60218.23, 55370.68, -19510.77, 23185.62, 8481.82, 39010.50, 8978.79, 3664.48, 0.000, 0.000, 0.000, 22:04:09.490
131, 60226.68, 55379.29, -19484.51, 23214.14, 8491.79, 39008.35, 9004.87, 3688.64, 0.000, 0.000, 0.000, 22:04:09.490
132, 60261.39, 55396.83, -19472.57, 23229.74, 8531.53, 39055.00, 9023.26, 3715.82, 0.000, 0.000, 0.000, 22:04:09.491
133, 60261.02, 55389.52, -19509.54, 23195.95, 8520.24, 39064.01, 8988.89, 3687.70, 0.000, 0.000, 0.000, 22:04:09.491
134, 60232.50, 55375.24, -19531.15, 23178.74, 8486.35, 39034.30, 8964.82, 3660.43, 0.000, 0.000, 0.000, 22:04:09.491
135, 60237.84, 55397.55, -19514.55, 23193.60, 8475.33, 39013.20, 8970.96, 3663.20, 0.000, 0.000, 0.000, 22:04:09.491
136, 60245.32, 55420.77, -19473.89, 23233.39, 8488.99, 39019.86, 9002.30, 3696.33, 0.000, 0.000, 0.000, 22:04:09.491
137, 60253.06, 55417.08, -19469.11, 23246.78, 8516.95, 39056.23, 9008.16, 3707.26, -0.002, 0.902, 0.470, 22:04:09.492
138, 60240.32, 55402.57, -19502.23, 23215.95, 8509.31, 39059.85, 8972.68, 3682.20, 0.000, 0.000, 0.000, 22:04:09.492
139, 60237.12, 55362.45, -19517.68, 23199.39, 8480.45, 39030.12, 8952.97, 3666.38, 0.000, 0.000, 0.000, 22:04:09.492
140, 60232.90, 55382.43, -19506.46, 23208.89, 8466.33, 39004.66, 8957.75, 3670.80, 0.000, 0.000, 0.000, 22:04:09.493
141, 60253.24, 55421.17, -19478.56, 23235.96, 8474.48, 39000.77, 8982.18, 3692.33, 0.000, 0.000, 0.000, 22:04:09.493
142, 60280.44, 55431.74, -19468.86, 23246.57, 8510.78, 39042.26, 8993.29, 3704.94, 0.000, 0.000, 0.000, 22:04:09.493
143, 60274.47, 55401.39, -19501.56, 23215.59, 8504.48, 39051.49, 8958.87, 3667.41, 0.000, 0.000, 0.000, 22:04:09.493
144, 60272.55, 55395.46, -19513.12, 23205.96, 8477.26, 39025.70, 8944.47, 3648.90, 0.000, 0.000, 0.000, 22:04:09.493
145, 60273.82, 55417.86, -19495.35, 23221.85, 8472.90, 39008.57, 8967.25, 3664.10, 0.000, 0.000, 0.000, 22:04:09.493
146, 60299.39, 55444.42, -19466.04, 23245.79, 8478.87, 39004.11, 8992.64, 3690.99, 0.000, 0.000, 0.000, 22:04:09.493
147, 60360.41, 55463.30, -19451.85, 23256.74, 8516.55, 39050.55, 9008.13, 3720.85, 0.006, 0.900, 0.470, 22:04:09.493
148, 60316.16, 55429.93, -19480.26, 23231.13, 8519.99, 39065.73, 8990.45, 3697.60, 0.000, 0.000, 0.000, 22:04:09.493
149, 60262.83, 55397.14, -19501.87, 23212.98, 8490.65, 39038.06, 8970.04, 3671.88, 0.000, 0.000, 0.000, 22:04:09.493
150, 60273.80, 55409.66, -19494.65, 23218.23, 8479.89, 39014.03, 8976.97, 3660.12, 0.000, 0.000, 0.000, 22:04:09.493
151, 60274.92, 55441.91, -19463.25, 23250.55, 8494.96, 39016.27, 9009.16, 3690.18, 0.000, 0.000, 0.000, 22:04:09.494
152, 60302.50, 55456.93, -19454.67, 23266.18, 8533.76, 39066.96, 9024.52, 3732.32, 0.000, 0.000, 0.000, 22:04:09.494
153, 60305.47, 55444.68, -19480.04, 23243.98, 8539.68, 39091.25, 9011.91, 3727.15, 0.000, 0.000, 0.000, 22:04:09.494
154, 60285.67, 55432.08, -19498.12, 23225.79, 8512.13, 39069.35, 9000.67, 3705.05, 0.000, 0.000, 0.000, 22:04:09.494
155, 60293.02, 55404.92, -19489.22, 23231.35, 8502.76, 39050.73, 9008.56, 3703.15, 0.000, 0.000, 0.000, 22:04:09.494
156, 60305.47, 55410.87, -19464.14, 23255.85, 8511.45, 39049.48, 9031.94, 3726.30, 0.000, 0.000, 0.000, 22:04:09.494
157, 60338.78, 55429.11, -19449.73, 23271.74, 8553.32, 39096.35, 9054.80, 3756.39, 0.012, 0.910, 0.466, 22:04:09.494
158, 60335.54, 55415.18, -19482.94, 23238.39, 8553.30, 39112.82, 9031.56, 3731.11, 0.000, 0.000, 0.000, 22:04:09.494
159, 60291.64, 55394.08, -19508.60, 23212.62, 8517.38, 39080.44, 9007.06, 3710.86, 0.000, 0.000, 0.000, 22:04:09.494
160, 60290.01, 55422.55, -19502.57, 23217.49, 8508.46, 39053.30, 9013.61, 3716.60, 0.000, 0.000, 0.000, 22:04:09.495
161, 60259.77, 55441.89, -19474.45, 23243.87, 8517.58, 39046.55, 9041.75, 3739.00, 0.000, 0.000, 0.000, 22:04:09.495
162, 60257.24, 55414.35, -19472.06, 23248.72, 8542.64, 39080.70, 9045.42, 3745.37, 0.000, 0.000, 0.000, 22:04:09.495
163, 60289.29, 55397.81, -19500.98, 23222.57, 8537.92, 39093.49, 9015.04, 3718.55, 0.000, 0.000, 0.000, 22:04:09.495
164, 60277.18, 55379.11, -19522.01, 23201.87, 8503.47, 39062.58, 8985.76, 3690.56, 0.000, 0.000, 0.000, 22:04:09.495
165, 60264.35, 55396.32, -19512.69, 23213.20, 8486.60, 39038.48, 8984.48, 3687.95, 0.000, 0.000, 0.000, 22:04:09.495
166, 60276.91, 55434.07, -19484.93, 23239.13, 8488.25, 39024.27, 9005.05, 3700.64, 0.000, 0.000, 0.000, 22:04:09.496
167, 60299.84, 55435.90, -19473.15, 23250.69, 8517.53, 39055.78, 9010.39, 3701.38, 0.014, 0.908, 0.472, 22:04:09.496
168, 60321.07, 55415.11, -19502.54, 23223.42, 8512.06, 39067.81, 8975.37, 3673.04, 0.000, 0.000, 0.000, 22:04:09.496
169, 60289.61, 55391.49, -19517.12, 23212.04, 8480.16, 39040.65, 8957.33, 3668.21, 0.000, 0.000, 0.000, 22:04:09.496
170, 60255.41, 55367.39, -19497.83, 23225.99, 8469.25, 39020.87, 8968.75, 3676.91, 0.000, 0.000, 0.000, 22:04:09.497
171, 60251.34, 55384.07, -19462.94, 23253.93, 8482.53, 39014.39, 8995.75, 3691.41, 0.000, 0.000, 0.000, 22:04:09.498
172, 60275.63, 55406.13, -19445.62, 23271.12, 8526.88, 39059.98, 9017.10, 3715.40, 0.000, 0.000, 0.000, 22:04:09.498
173, 60285.09, 55400.70, -19480.64, 23240.09, 8521.56, 39074.60, 8986.83, 3697.78, 0.000, 0.000, 0.000, 22:04:09.498
174, 60280.06, 55396.18, -19499.59, 23223.98, 8490.31, 39049.52, 8969.93, 3682.85, 0.000, 0.000, 0.000, 22:04:09.498
175, 60308.58, 55392.05, -19487.99, 23233.99, 8483.67, 39031.91, 8979.50, 3688.10, 0.000, 0.000, 0.000, 22:04:09.499
176, 60328.50, 55407.54, -19459.21, 23260.45, 8495.45, 39026.37, 9014.57, 3711.08, 0.000, 0.000, 0.000, 22:04:09.499
177, 60292.31, 55415.61, -19446.82, 23276.88, 8535.04, 39071.77, 9038.04, 3734.48, 0.006, 0.900, 0.464, 22:04:09.499
178, 60279.77, 55399.64, -19476.39, 23250.08, 8537.54, 39091.41, 9011.31, 3719.78, 0.000, 0.000, 0.000, 22:04:09.499
179, 60265.51, 55379.02, -19503.68, 23219.77, 8501.53, 39052.16, 8983.46, 3682.70, 0.000, 0.000, 0.000, 22:04:09.499
180, 60277.60, 55385.32, -19497.09, 23223.33, 8490.73, 39028.96, 8989.67, 3682.14, 0.000, 0.000, 0.000, 22:04:09.499
181, 60298.03, 55404.65, -19470.25, 23248.34, 8497.98, 39028.25, 9015.00, 3710.43, 0.000, 0.000, 0.000, 22:04:09.500
182, 60305.18, 55426.65, -19456.23, 23264.46, 8538.14, 39077.57, 9034.15, 3733.61, 0.000, 0.000, 0.000, 22:04:09.500
183, 60300.29, 55421.57, -19491.59, 23237.30, 8537.58, 39105.47, 9007.82, 3714.06, 0.000, 0.000, 0.000, 22:04:09.500
184, 60283.50, 55379.60, -19518.35, 23214.37, 8503.03, 39077.62, 8983.93, 3689.69, 0.000, 0.000, 0.000, 22:04:09.500
185, 60269.98, 55379.84, -19512.92, 23219.46, 8490.51, 39053.73, 8985.65, 3689.07, 0.000, 0.000, 0.000, 22:04:09.501
186, 60253.80, 55392.09, -19489.85, 23239.94, 8498.20, 39044.68, 9012.13, 3711.28, 0.004, 0.900, 0.472, 22:04:09.501
187, 60261.82, 55387.91, -19481.80, 23247.51, 8535.30, 39079.09, 9028.92, 3734.40, 0.000, 0.000, 0.000, 22:04:09.501
188, 60268.86, 55373.65, -19510.72, 23220.47, 8536.56, 39095.68, 9001.81, 3708.85, 0.000, 0.000, 0.000, 22:04:09.501
189, 60264.50, 55368.64, -19524.05, 23208.24, 8506.58, 39068.19, 8984.19, 3690.32, 0.000, 0.000, 0.000, 22:04:09.501
190, 60274.27, 55370.05, -19510.32, 23219.08, 8492.17, 39037.70, 8987.57, 3689.11, 0.000, 0.000, 0.000, 22:04:09.502
191, 60300.73, 55389.86, -19483.54, 23242.19, 8492.17, 39020.36, 9004.71, 3702.05, 0.000, 0.000, 0.000, 22:04:09.502
192, 60318.04, 55402.89, -19468.19, 23258.29, 8523.57, 39057.68, 9015.71, 3712.87, 0.000, 0.000, 0.000, 22:04:09.502
193, 60294.57, 55396.85, -19500.76, 23228.07, 8515.03, 39075.34, 8983.39, 3680.08, 0.000, 0.000, 0.000, 22:04:09.502
194, 60275.90, 55396.47, -19515.08, 23214.10, 8479.42, 39044.68, 8967.39, 3664.14, 0.000, 0.000, 0.000, 22:04:09.964
195, 60280.84, 55416.28, -19503.46, 23225.79, 8463.62, 39019.46, 8971.25, 3681.31, 0.000, 0.000, 0.000, 22:04:09.964
196, 60305.38, 55433.98, -19470.69, 23255.58, 8471.22, 39011.35, 8997.45, 3707.19, 0.006, 0.902, 0.468, 22:04:09.965
197, 60317.81, 55426.31, -19460.14, 23266.06, 8501.73, 39046.98, 9009.97, 3717.88, 0.000, 0.000, 0.000, 22:04:09.965
198, 60313.52, 55404.50, -19491.93, 23236.38, 8499.29, 39066.63, 8979.46, 3693.33, 0.000, 0.000, 0.000, 22:04:09.965
199, 60293.11, 55391.73, -19503.93, 23224.11, 8474.73, 39037.97, 8962.07, 3671.85, 0.000, 0.000, 0.000, 22:04:09.965
200, 60297.27, 55398.89, -19488.15, 23236.29, 8472.05, 39021.12, 8978.38, 3679.77, 0.000, 0.000, 0.000, 22:04:09.966
201, 60321.32, 55429.66, -19457.57, 23262.00, 8481.39, 39011.91, 9001.05, 3694.59, 0.000, 0.000, 0.000, 22:04:09.966
202, 60307.22, 55454.68, -19443.76, 23276.03, 8521.33, 39049.93, 9017.79, 3713.65, 0.000, 0.000, 0.000, 22:04:09.966
203, 60285.20, 55428.12, -19476.33, 23244.09, 8519.50, 39068.59, 8994.70, 3696.38, 0.000, 0.000, 0.000, 22:04:09.966
204, 60255.38, 55407.94, -19501.72, 23219.62, 8486.69, 39041.66, 8972.28, 3674.69, 0.000, 0.000, 0.000, 22:04:09.967
205, 60256.75, 55375.21, -19491.66, 23227.46, 8478.22, 39022.52, 8984.37, 3682.65, 0.000, 0.000, 0.000, 22:04:09.967
206, 60267.10, 55396.29, -19467.90, 23248.90, 8483.47, 39017.50, 9011.66, 3702.90, 0.006, 0.902, 0.476, 22:04:09.967
207, 60288.04, 55403.56, -19460.70, 23257.30, 8517.89, 39059.88, 9030.08, 3722.55, 0.000, 0.000, 0.000, 22:04:09.967
208, 60320.49, 55395.06, -19495.57, 23224.04, 8519.46, 39083.54, 9002.30, 3704.24, 0.000, 0.000, 0.000, 22:04:09.967
209, 60279.05, 55385.41, -19515.17, 23206.99, 8490.82, 39061.68, 8983.19, 3687.90, 0.000, 0.000, 0.000, 22:04:09.967
210, 60250.20, 55387.35, -19505.05, 23219.35, 8478.89, 39044.00, 8991.48, 3691.03, 0.000, 0.000, 0.000, 22:04:09.967
211, 60253.46, 55396.92, -19486.67, 23240.02, 8476.41, 39031.87, 9007.04, 3700.64, 0.000, 0.000, 0.000, 22:04:09.967
212, 60265.93, 55401.59, -19478.31, 23249.79, 8509.76, 39065.84, 9020.60, 3722.06, 0.000, 0.000, 0.000, 22:04:09.968
213, 60268.32, 55381.77, -19514.03, 23214.32, 8510.85, 39077.49, 8988.73, 3693.65, 0.000, 0.000, 0.000, 22:04:09.968
214, 60271.23, 55373.56, -19530.22, 23195.72, 8483.11, 39041.57, 8964.35, 3654.98, 0.000, 0.000, 0.000, 22:04:09.968
215, 60280.13, 55374.25, -19521.05, 23197.94, 8473.46, 39012.00, 8972.35, 3649.61, 0.000, 0.000, 0.000, 22:04:09.968
216, 60265.42, 55400.41, -19498.46, 23216.40, 8473.95, 38994.43, 8992.58, 3674.09, 0.004, 0.906, 0.472, 22:04:09.968
217, 60272.75, 55423.70, -19485.56, 23234.17, 8506.76, 39032.27, 9004.40, 3700.29, 0.000, 0.000, 0.000, 22:04:09.968
218, 60271.32, 55382.46, -19516.94, 23209.76, 8502.25, 39057.39, 8975.59, 3677.96, 0.000, 0.000, 0.000, 22:04:09.969
219, 60238.46, 55355.03, -19533.68, 23200.80, 8469.32, 39039.15, 8957.82, 3663.63, 0.000, 0.000, 0.000, 22:04:09.969
220, 60233.68, 55369.25, -19522.88, 23217.29, 8453.97, 39021.05, 8964.48, 3672.08, 0.000, 0.000, 0.000, 22:04:09.969
221, 60259.05, 55394.26, -19488.73, 23253.77, 8460.16, 39021.72, 8989.31, 3701.02, 0.000, 0.000, 0.000, 22:04:09.969
222, 60285.65, 55406.42, -19477.58, 23264.28, 8487.25, 39054.89, 8995.17, 3714.06, 0.000, 0.000, 0.000, 22:04:09.969
223, 60300.18, 55386.35, -19499.19, 23241.19, 8492.90, 39074.11, 8973.29, 3693.20, 0.000, 0.000, 0.000, 22:04:09.973
224, 60301.54, 55368.80, -19516.02, 23222.97, 8466.64, 39048.99, 8951.87, 3668.59, 0.000, 0.000, 0.000, 22:04:09.974
225, 60293.85, 55383.62, -19500.98, 23233.27, 8463.78, 39028.36, 8964.66, 3674.58, 0.000, 0.000, 0.000, 22:04:09.974
226, 60266.89, 55410.51, -19476.68, 23254.87, 8471.24, 39015.86, 8989.63, 3692.37, 0.000, 0.904, 0.472, 22:04:09.974
227, 60265.60, 55439.68, -19452.92, 23276.53, 8511.95, 39056.12, 9015.53, 3716.94, 0.000, 0.000, 0.000, 22:04:09.974
228, 60281.33, 55423.96, -19478.00, 23252.59, 8520.37, 39083.79, 8995.10, 3693.78, 0.000, 0.000, 0.000, 22:04:09.975
229, 60272.17, 55387.53, -19507.39, 23224.49, 8481.50, 39049.14, 8963.85, 3661.62, 0.000, 0.000, 0.000, 22:04:09.975
230, 60273.24, 55394.95, -19495.06, 23235.67, 8466.62, 39027.57, 8973.53, 3668.95, 0.000, 0.000, 0.000, 22:04:09.975
231, 60273.67, 55413.35, -19465.82, 23262.15, 8474.91, 39020.85, 9002.08, 3696.80, 0.000, 0.000, 0.000, 22:04:09.975
232, 60282.65, 55445.42, -19448.88, 23277.31, 8514.99, 39057.08, 9022.59, 3721.63, 0.000, 0.000, 0.000, 22:04:09.975
233, 60298.66, 55418.58, -19473.15, 23254.04, 8522.92, 39086.45, 9000.91, 3705.34, 0.000, 0.000, 0.000, 22:04:09.976
234, 60276.57, 55383.22, -19498.39, 23230.05, 8489.84, 39063.96, 8983.81, 3687.21, 0.000, 0.000, 0.000, 22:04:09.976
235, 60276.93, 55379.39, -19494.45, 23234.03, 8474.69, 39045.99, 8986.38, 3699.39, 0.000, 0.000, 0.000, 22:04:09.976
236, 60315.71, 55393.79, -19468.01, 23257.91, 8480.45, 39030.01, 9011.35, 3715.66, 0.004, 0.902, 0.468, 22:04:09.976
237, 60348.41, 55419.76, -19452.74, 23270.09, 8516.73, 39061.19, 9036.00, 3726.91, 0.000, 0.000, 0.000, 22:04:09.976
238, 60289.16, 55406.46, -19483.70, 23240.20, 8523.84, 39082.79, 9005.65, 3705.92, 0.000, 0.000, 0.000, 22:04:09.976
239, 60231.18, 55386.75, -19513.56, 23212.69, 8486.91, 39052.27, 8973.22, 3676.95, 0.000, 0.000, 0.000, 22:04:09.977
240, 60230.68, 55364.96, -19512.76, 23212.80, 8467.29, 39027.53, 8970.02, 3670.25, 0.000, 0.000, 0.000, 22:04:09.977
241, 60249.48, 55385.12, -19490.68, 23233.52, 8466.57, 39013.52, 8985.69, 3683.63, 0.000, 0.000, 0.000, 22:04:09.977
242, 60283.77, 55420.23, -19471.48, 23253.97, 8500.86, 39053.84, 9007.22, 3707.57, 0.000, 0.000, 0.000, 22:04:09.977
243, 60278.25, 55401.25, -19504.06, 23226.35, 8500.17, 39077.33, 8975.48, 3683.08, 0.000, 0.000, 0.000, 22:04:09.977
244, 60246.09, 55356.75, -19531.65, 23201.62, 8462.12, 39045.32, 8944.41, 3658.53, 0.000, 0.000, 0.000, 22:04:09.978
245, 60249.86, 55361.71, -19520.87, 23210.32, 8450.97, 39024.56, 8956.03, 3666.20, 0.000, 0.000, 0.000, 22:04:09.978
246, 60282.88, 55384.47, -19499.46, 23229.79, 8452.74, 39013.89, 8976.19, 3686.65, 0.002, 0.902, 0.472, 22:04:09.978
247, 60290.61, 55391.33, -19482.90, 23245.79, 8487.25, 39044.61, 8996.33, 3703.26, 0.000, 0.000, 0.000, 22:04:09.978
248, 60268.93, 55383.71, -19504.82, 23225.29, 8496.93, 39066.64, 8973.38, 3675.95, 0.000, 0.000, 0.000, 22:04:09.978
249, 60256.90, 55386.17, -19528.38, 23205.67, 8466.91, 39041.23, 8943.83, 3650.78, 0.000, 0.000, 0.000, 22:04:09.978
250, 60263.70, 55383.22, -19519.89, 23214.54, 8456.11, 39020.02, 8945.53, 3665.71, 0.000, 0.000, 0.000, 22:04:09.979
251, 60281.13, 55395.31, -19487.86, 23243.04, 8462.73, 39010.99, 8970.47, 3701.02, 0.000, 0.000, 0.000, 22:04:09.979
252, 60270.74, 55402.73, -19460.01, 23269.53, 8505.91, 39051.83, 9009.56, 3729.79, 0.000, 0.000, 0.000, 22:04:09.979
253, 60252.72, 55381.07, -19485.15, 23244.00, 8517.98, 39082.98, 8998.83, 3711.15, 0.000, 0.000, 0.000, 22:04:09.979
254, 60248.16, 55377.88, -19503.04, 23225.36, 8490.60, 39063.81, 8981.09, 3691.90, 0.000, 0.000, 0.000, 22:04:09.979
255, 60262.27, 55399.85, -19495.84, 23230.57, 8477.03, 39036.96, 8984.19, 3689.65, 0.002, 0.906, 0.472, 22:04:09.979
0, 60305.07, 55415.98, -19469.73, 23251.60, 8480.90, 39024.31, 9005.94, 3708.69, 0.000, 0.000, 0.000, 22:04:09.980
1, 60316.00, 55419.05, -19451.31, 23268.63, 8516.01, 39069.98, 9029.63, 3734.42, 0.000, 0.000, 0.000, 22:04:09.980
2, 60303.60, 55404.36, -19473.67, 23247.51, 8527.79, 39105.58, 9015.35, 3728.63, 0.000, 0.000, 0.000, 22:04:09.980
3, 60301.34, 55396.07, -19501.34, 23221.07, 8494.71, 39082.70, 8987.61, 3702.25, 0.000, 0.000, 0.000, 22:04:09.980
