%OpenBCI Raw EEG Data
%
%Sample Rate = 250.0 Hz
%First Column = SampleIndex
%Last Column = Timestamp 
%Other Columns = EEG data in microvolts followed by Accel Data (in G) interleaved with Aux Data
0, 0.00, 0.00, 0.00, 0.00, 0.00, 0.00, 0.00, 0.00, 0.004, 0.942, 0.396, 14:51:34.466
1, 52600.11, 68947.24, -1716.50, 29108.01, 22686.82, 52695.75, 40755.70, 45539.44, 0.000, 0.000, 0.000, 14:51:34.947
2, 52513.19, 68942.92, -1725.93, 29111.20, 22681.05, 52691.06, 40754.61, 45531.08, 0.000, 0.000, 0.000, 14:51:34.948
3, 52500.54, 68936.55, -1716.32, 29109.19, 22694.40, 52687.89, 40776.96, 45548.96, 0.000, 0.000, 0.000, 14:51:34.949
4, 52536.52, 68937.78, -1713.28, 29113.10, 22696.34, 52693.14, 40784.42, 45551.47, 0.000, 0.000, 0.000, 14:51:34.949
5, 52561.71, 68951.95, -1713.73, 29108.52, 22693.08, 52689.88, 40773.52, 45541.57, 0.000, 0.000, 0.000, 14:51:34.950
6, 52569.76, 68959.02, -1722.07, 29105.05, 22684.38, 52688.51, 40755.79, 45527.26, 0.000, 0.000, 0.000, 14:51:34.950
7, 52601.83, 68967.73, -1726.85, 29116.79, 22690.04, 52702.19, 40758.98, 45533.16, 0.000, 0.000, 0.000, 14:51:34.951
8, 52586.97, 68942.30, -1716.48, 29113.97, 22710.47, 52700.50, 40783.35, 45558.31, 0.000, 0.932, 0.422, 14:51:34.952
9, 52596.27, 68927.84, -1713.40, 29115.40, 22704.48, 52700.67, 40783.06, 45551.25, 0.000, 0.000, 0.000, 14:51:34.952
10, 52567.03, 68942.10, -1713.98, 29112.10, 22697.03, 52698.84, 40774.68, 45538.32, 0.000, 0.000, 0.000, 14:51:34.953
11, 52575.41, 68964.92, -1720.10, 29110.26, 22689.95, 52693.72, 40753.04, 45518.68, 0.000, 0.000, 0.000, 14:51:34.953
12, 52550.13, 68948.00, -1731.90, 29112.86, 22665.05, 52692.76, 40736.68, 45505.69, 0.000, 0.000, 0.000, 14:51:34.954
13, 52540.63, 68937.00, -1725.20, 29105.72, 22678.73, 52685.47, 40756.93, 45536.89, 0.000, 0.000, 0.000, 14:51:34.955
14, 52550.25, 68925.80, -1721.24, 29106.69, 22679.00, 52686.26, 40763.97, 45543.31, 0.000, 0.000, 0.000, 14:51:34.955
15, 52564.28, 68939.35, -1719.88, 29105.66, 22678.01, 52684.31, 40760.86, 45534.57, 0.000, 0.000, 0.000, 14:51:34.956
16, 52564.73, 68953.84, -1728.80, 29103.71, 22670.57, 52683.64, 40748.82, 45520.36, 0.000, 0.000, 0.000, 14:51:34.957
17, 52592.58, 68967.83, -1736.42, 29108.88, 22669.74, 52693.57, 40747.43, 45525.92, 0.004, 0.922, 0.440, 14:51:34.957
18, 52572.75, 68950.16, -1731.90, 29100.16, 22681.83, 52685.70, 40766.21, 45538.46, 0.000, 0.000, 0.000, 14:51:34.958
19, 52556.62, 68952.18, -1727.59, 29103.67, 22680.27, 52688.04, 40767.86, 45537.95, 0.000, 0.000, 0.000, 14:51:34.958
20, 52576.91, 68952.18, -1717.69, 29106.91, 22687.20, 52690.79, 40769.54, 45535.40, 0.000, 0.000, 0.000, 14:51:34.959
21, 52575.61, 68951.55, -1729.53, 29101.75, 22675.26, 52682.05, 40750.65, 45516.11, 0.000, 0.000, 0.000, 14:51:34.959
22, 52559.07, 68936.78, -1738.59, 29105.64, 22666.66, 52688.34, 40737.80, 45503.93, 0.000, 0.000, 0.000, 14:51:34.960
23, 52555.59, 68926.72, -1733.71, 29097.43, 22680.92, 52683.75, 40761.71, 45520.87, 0.000, 0.000, 0.000, 14:51:34.961
24, 52595.73, 68953.38, -1731.68, 29099.76, 22679.13, 52690.79, 40768.11, 45554.17, 0.000, 0.000, 0.000, 14:51:34.961
25, 52606.91, 68966.35, -1728.82, 29099.15, 22682.39, 52688.38, 40766.18, 45552.63, 0.000, 0.000, 0.000, 14:51:34.962
26, 52563.01, 68943.10, -1735.68, 29096.29, 22672.40, 52683.93, 40748.64, 45530.03, 0.000, 0.000, 0.000, 14:51:34.962
27, 52523.82, 68918.31, -1744.40, 29101.41, 22666.01, 52686.52, 40744.88, 45517.23, 0.002, 0.916, 0.446, 14:51:34.963
28, 52506.44, 68910.11, -1738.30, 29092.87, 22681.81, 52679.11, 40763.37, 45532.20, 0.000, 0.000, 0.000, 14:51:34.963
29, 52552.95, 68921.22, -1737.24, 29093.52, 22673.68, 52683.44, 40762.11, 45539.31, 0.000, 0.000, 0.000, 14:51:34.964
30, 52569.20, 68937.88, -1724.48, 29103.27, 22680.34, 52684.33, 40764.28, 45539.73, 0.000, 0.000, 0.000, 14:51:34.965
31, 52549.53, 68954.66, -1730.47, 29100.94, 22676.16, 52680.96, 40750.65, 45519.28, 0.000, 0.000, 0.000, 14:51:34.966
32, 52558.54, 68953.27, -1751.13, 29093.70, 22662.66, 52678.05, 40742.78, 45510.63, 0.000, 0.000, 0.000, 14:51:34.967
33, 52553.87, 68941.00, -1737.80, 29096.03, 22679.62, 52681.50, 40768.78, 45541.68, 0.000, 0.000, 0.000, 14:51:34.967
34, 52571.03, 68947.77, -1734.56, 29097.08, 22680.16, 52681.54, 40769.09, 45547.00, 0.000, 0.000, 0.000, 14:51:34.968
35, 52551.52, 68955.20, -1729.15, 29096.65, 22681.46, 52681.18, 40752.75, 45532.74, 0.000, 0.000, 0.000, 14:51:34.968
36, 52544.08, 68927.81, -1734.23, 29096.11, 22677.30, 52681.14, 40732.54, 45520.51, 0.000, 0.000, 0.000, 14:51:34.969
37, 52568.24, 68925.65, -1741.87, 29098.71, 22672.74, 52684.60, 40736.57, 45524.33, 0.002, 0.908, 0.448, 14:51:34.969
38, 52547.68, 68919.32, -1728.86, 29100.23, 22685.63, 52684.60, 40767.61, 45544.61, 0.000, 0.000, 0.000, 14:51:34.970
39, 52516.61, 68938.43, -1721.71, 29111.11, 22689.72, 52690.97, 40773.20, 45546.80, 0.000, 0.000, 0.000, 14:51:34.971
40, 52538.27, 68945.27, -1720.37, 29107.65, 22691.33, 52682.64, 40778.66, 45530.75, 0.000, 0.000, 0.000, 14:51:34.971
41, 52560.08, 68955.60, -1725.89, 29107.94, 22683.13, 52681.96, 40768.46, 45521.85, 0.000, 0.000, 0.000, 14:51:34.972
42, 52572.62, 68959.24, -1734.45, 29113.15, 22679.44, 52691.75, 40758.38, 45530.82, 0.000, 0.000, 0.000, 14:51:34.972
43, 52570.90, 68946.44, -1725.38, 29111.16, 22697.55, 52694.93, 40779.50, 45549.68, 0.000, 0.000, 0.000, 14:51:34.973
44, 52580.40, 68941.79, -1724.57, 29109.12, 22686.88, 52693.92, 40775.53, 45552.94, 0.000, 0.000, 0.000, 14:51:34.973
45, 52598.68, 68955.15, -1725.22, 29104.85, 22684.20, 52688.56, 40770.88, 45537.83, 0.000, 0.000, 0.000, 14:51:34.974
46, 52623.85, 68949.16, -1732.82, 29103.54, 22681.01, 52689.48, 40754.74, 45514.77, 0.000, 0.000, 0.000, 14:51:34.974
47, 52567.64, 68956.11, -1736.26, 29111.43, 22680.67, 52695.62, 40753.35, 45521.74, 0.000, 0.912, 0.452, 14:51:34.989
48, 52526.89, 68942.79, -1717.22, 29114.91, 22704.52, 52696.02, 40782.52, 45538.75, 0.000, 0.000, 0.000, 14:51:34.990
49, 52569.58, 68925.96, -1711.94, 29115.29, 22706.49, 52702.98, 40783.98, 45545.48, 0.000, 0.000, 0.000, 14:51:34.990
50, 52539.07, 68936.87, -1709.24, 29114.69, 22702.13, 52694.62, 40769.87, 45541.30, 0.000, 0.000, 0.000, 14:51:34.991
51, 52546.18, 68950.23, -1721.96, 29107.74, 22692.03, 52678.10, 40744.52, 45510.41, 0.000, 0.000, 0.000, 14:51:34.992
52, 52547.43, 68970.26, -1730.94, 29112.56, 22690.02, 52686.90, 40740.95, 45520.55, 0.000, 0.000, 0.000, 14:51:34.993
53, 52540.50, 68942.63, -1721.64, 29111.31, 22705.88, 52688.51, 40771.61, 45543.89, 0.000, 0.000, 0.000, 14:51:34.994
54, 52530.24, 68949.30, -1719.27, 29115.07, 22705.93, 52693.79, 40773.34, 45543.22, 0.000, 0.000, 0.000, 14:51:34.995
55, 52575.08, 68950.41, -1714.45, 29116.01, 22700.92, 52697.86, 40764.20, 45539.46, 0.000, 0.000, 0.000, 14:51:34.995
56, 52606.50, 68965.32, -1719.12, 29115.96, 22694.24, 52702.98, 40745.80, 45531.29, 0.000, 0.000, 0.000, 14:51:34.996
57, 52564.21, 68977.39, -1732.30, 29118.42, 22682.50, 52705.61, 40741.80, 45521.89, 0.002, 0.910, 0.452, 14:51:34.996
58, 52539.11, 68950.44, -1714.42, 29121.71, 22704.25, 52710.29, 40776.55, 45545.72, 0.000, 0.000, 0.000, 14:51:34.996
59, 52543.27, 68953.56, -1710.71, 29123.07, 22704.66, 52710.69, 40774.90, 45555.34, 0.000, 0.000, 0.000, 14:51:34.997
60, 52573.96, 68981.19, -1714.56, 29117.37, 22699.60, 52704.83, 40767.52, 45552.38, 0.000, 0.000, 0.000, 14:51:34.997
61, 52593.27, 68960.96, -1717.22, 29117.33, 22696.05, 52703.98, 40767.41, 45538.79, 0.000, 0.000, 0.000, 14:51:34.997
62, 52588.73, 68947.04, -1725.20, 29119.90, 22689.10, 52706.04, 40762.32, 45534.14, 0.000, 0.000, 0.000, 14:51:34.998
63, 52578.52, 68934.86, -1715.61, 29112.68, 22705.71, 52702.86, 40781.36, 45555.83, 0.000, 0.000, 0.000, 14:51:34.998
64, 52600.94, 68943.46, -1711.61, 29111.63, 22709.91, 52705.16, 40790.28, 45565.41, 0.000, 0.000, 0.000, 14:51:34.998
65, 52591.86, 68955.87, -1712.01, 29109.48, 22709.28, 52707.27, 40788.42, 45557.21, 0.000, 0.000, 0.000, 14:51:34.999
66, 52570.32, 68978.33, -1721.78, 29107.85, 22701.97, 52702.64, 40773.07, 45541.54, 0.000, 0.000, 0.000, 14:51:34.999
67, 52590.32, 68977.73, -1730.61, 29113.91, 22700.30, 52713.30, 40768.75, 45546.66, 0.000, 0.908, 0.452, 14:51:34.999
68, 52590.57, 68950.41, -1722.78, 29105.23, 22709.24, 52707.85, 40786.57, 45560.43, 0.000, 0.000, 0.000, 14:51:35.000
69, 52557.15, 68953.81, -1722.25, 29105.93, 22703.69, 52706.30, 40787.95, 45556.74, 0.000, 0.000, 0.000, 14:51:35.000
70, 52563.46, 68966.08, -1720.46, 29103.94, 22703.76, 52703.29, 40779.57, 45546.33, 0.000, 0.000, 0.000, 14:51:35.008
71, 52628.19, 68991.14, -1730.70, 29097.72, 22700.36, 52697.43, 40763.46, 45522.50, 0.000, 0.000, 0.000, 14:51:35.008
72, 52579.66, 68970.89, -1740.55, 29100.36, 22697.10, 52702.10, 40760.62, 45528.82, 0.000, 0.000, 0.000, 14:51:35.008
73, 52555.95, 68957.70, -1724.01, 29106.24, 22714.87, 52705.81, 40783.28, 45545.84, 0.000, 0.000, 0.000, 14:51:35.009
74, 52524.83, 68924.91, -1713.53, 29113.17, 22723.83, 52720.07, 40798.73, 45565.95, 0.000, 0.000, 0.000, 14:51:35.009
75, 52544.59, 68930.90, -1714.58, 29107.92, 22716.95, 52719.96, 40792.65, 45578.40, 0.000, 0.000, 0.000, 14:51:35.009
76, 52600.45, 68959.35, -1727.79, 29097.79, 22704.46, 52706.77, 40766.74, 45540.63, 0.000, 0.000, 0.000, 14:51:35.009
77, 52587.37, 68962.20, -1738.09, 29099.53, 22696.59, 52709.86, 40761.00, 45535.22, 0.002, 0.908, 0.448, 14:51:35.010
78, 52579.93, 68949.45, -1726.05, 29098.08, 22713.75, 52703.89, 40783.59, 45549.68, 0.000, 0.000, 0.000, 14:51:35.010
79, 52548.48, 68956.72, -1722.63, 29102.26, 22708.30, 52706.15, 40783.91, 45554.73, 0.000, 0.000, 0.000, 14:51:35.010
80, 52555.23, 68969.16, -1720.77, 29102.22, 22704.05, 52713.44, 40776.91, 45565.50, 0.000, 0.000, 0.000, 14:51:35.011
81, 52579.37, 68980.03, -1725.20, 29103.74, 22700.72, 52716.68, 40771.05, 45555.98, 0.000, 0.000, 0.000, 14:51:35.011
82, 52543.12, 68947.66, -1737.40, 29102.82, 22690.91, 52711.74, 40767.39, 45545.30, 0.000, 0.000, 0.000, 14:51:35.011
83, 52543.18, 68941.18, -1731.52, 29101.72, 22703.67, 52709.01, 40785.67, 45557.44, 0.000, 0.000, 0.000, 14:51:35.011
84, 52558.92, 68959.38, -1725.20, 29106.66, 22704.88, 52712.54, 40783.24, 45561.08, 0.000, 0.000, 0.000, 14:51:35.012
85, 52569.27, 68952.13, -1719.92, 29100.81, 22707.74, 52706.15, 40774.18, 45551.65, 0.000, 0.000, 0.000, 14:51:35.012
86, 52582.34, 68954.77, -1728.97, 29094.50, 22695.25, 52696.31, 40763.19, 45526.23, 0.002, 0.910, 0.454, 14:51:35.013
87, 52612.18, 68946.08, -1734.00, 29098.33, 22689.72, 52700.67, 40760.55, 45512.71, 0.000, 0.000, 0.000, 14:51:35.013
88, 52575.44, 68942.52, -1715.72, 29104.18, 22713.30, 52717.68, 40787.84, 45555.71, 0.000, 0.000, 0.000, 14:51:35.013
89, 52554.40, 68951.42, -1703.54, 29114.58, 22721.53, 52729.71, 40800.47, 45571.94, 0.000, 0.000, 0.000, 14:51:35.013
90, 52545.30, 68951.46, -1703.43, 29113.19, 22716.10, 52713.91, 40796.69, 45562.38, 0.000, 0.000, 0.000, 14:51:35.014
91, 52556.28, 68969.50, -1721.51, 29104.34, 22695.58, 52695.42, 40772.20, 45538.19, 0.000, 0.000, 0.000, 14:51:35.014
92, 52587.91, 68964.27, -1730.27, 29107.74, 22688.67, 52701.14, 40763.03, 45531.44, 0.000, 0.000, 0.000, 14:51:35.015
93, 52557.18, 68956.45, -1718.42, 29108.59, 22707.27, 52706.51, 40783.86, 45550.66, 0.000, 0.000, 0.000, 14:51:35.015
94, 52547.14, 68953.19, -1720.77, 29104.45, 22707.54, 52701.01, 40778.99, 45543.69, 0.000, 0.000, 0.000, 14:51:35.015
95, 52583.77, 68963.91, -1713.28, 29103.04, 22711.45, 52697.32, 40778.36, 45536.25, 0.000, 0.000, 0.000, 14:51:35.015
96, 52665.58, 68981.03, -1723.23, 29095.29, 22694.37, 52693.81, 40761.04, 45520.80, 0.000, 0.906, 0.456, 14:51:35.016
97, 52605.88, 68985.64, -1732.62, 29101.30, 22686.21, 52702.91, 40752.62, 45519.19, 0.000, 0.000, 0.000, 14:51:35.016
98, 52513.57, 68960.94, -1725.40, 29096.18, 22702.00, 52697.32, 40771.35, 45524.58, 0.000, 0.000, 0.000, 14:51:35.016
99, 52514.10, 68937.77, -1721.15, 29101.05, 22703.96, 52701.30, 40773.69, 45530.70, 0.000, 0.000, 0.000, 14:51:35.017
100, 52535.49, 68941.45, -1714.47, 29106.17, 22706.40, 52713.66, 40779.48, 45567.74, 0.000, 0.000, 0.000, 14:51:35.017
101, 52557.40, 68962.57, -1724.91, 29100.16, 22696.94, 52714.33, 40773.89, 45556.23, 0.000, 0.000, 0.000, 14:51:35.017
102, 52577.49, 68976.68, -1739.10, 29101.48, 22686.93, 52715.54, 40760.89, 45539.18, 0.000, 0.000, 0.000, 14:51:35.017
103, 52613.05, 68972.81, -1729.82, 29102.66, 22702.49, 52712.59, 40778.54, 45556.27, 0.000, 0.000, 0.000, 14:51:35.018
104, 52576.91, 68965.10, -1735.43, 29098.80, 22693.97, 52707.65, 40772.55, 45552.25, 0.000, 0.000, 0.000, 14:51:35.018
105, 52548.05, 68968.36, -1735.75, 29091.08, 22687.13, 52698.06, 40759.03, 45535.17, 0.000, 0.000, 0.000, 14:51:35.018
106, 52558.80, 68970.41, -1736.26, 29088.54, 22683.38, 52696.76, 40758.52, 45527.06, 0.000, 0.912, 0.456, 14:51:35.018
107, 52550.83, 68976.70, -1741.42, 29092.89, 22680.98, 52701.90, 40755.19, 45526.23, 0.000, 0.000, 0.000, 14:51:35.019
108, 52549.60, 68973.88, -1730.36, 29091.93, 22701.39, 52703.91, 40781.41, 45546.24, 0.000, 0.000, 0.000, 14:51:35.019
109, 52562.18, 68975.02, -1727.83, 29095.73, 22700.68, 52705.32, 40783.57, 45554.66, 0.000, 0.000, 0.000, 14:51:35.019
110, 52591.82, 68987.77, -1721.22, 29096.00, 22703.38, 52702.08, 40775.64, 45553.10, 0.000, 0.000, 0.000, 14:51:35.019
111, 52578.77, 68980.52, -1727.72, 29097.61, 22696.56, 52697.90, 40762.38, 45530.64, 0.000, 0.000, 0.000, 14:51:35.020
112, 52594.82, 68987.90, -1736.75, 29105.05, 22693.21, 52706.21, 40757.55, 45525.94, 0.000, 0.000, 0.000, 14:51:35.020
113, 52612.23, 68998.24, -1731.41, 29098.39, 22707.99, 52702.91, 40768.57, 45547.85, 0.000, 0.000, 0.000, 14:51:35.020
114, 52561.00, 68947.06, -1728.10, 29103.29, 22700.03, 52705.50, 40760.84, 45544.76, 0.000, 0.000, 0.000, 14:51:35.020
115, 52545.60, 68941.49, -1715.41, 29111.83, 22696.09, 52704.47, 40761.18, 45540.16, 0.000, 0.000, 0.000, 14:51:35.021
116, 52534.51, 68956.60, -1721.35, 29110.87, 22689.59, 52694.55, 40754.23, 45524.51, 0.000, 0.914, 0.450, 14:51:35.021
117, 52555.57, 68977.44, -1729.38, 29116.70, 22682.13, 52697.77, 40752.82, 45517.96, 0.000, 0.000, 0.000, 14:51:35.021
118, 52583.21, 68974.20, -1716.37, 29114.17, 22699.11, 52698.80, 40773.00, 45534.05, 0.000, 0.000, 0.000, 14:51:35.021
119, 52596.07, 68968.00, -1714.49, 29114.08, 22694.57, 52699.82, 40777.05, 45539.58, 0.000, 0.000, 0.000, 14:51:35.022
120, 52549.31, 68984.99, -1715.65, 29106.96, 22692.92, 52694.50, 40770.79, 45530.75, 0.000, 0.000, 0.000, 14:51:35.022
121, 52564.51, 69002.09, -1717.71, 29109.97, 22690.57, 52698.32, 40756.30, 45514.61, 0.000, 0.000, 0.000, 14:51:35.434
122, 52593.36, 68996.86, -1728.21, 29111.31, 22686.30, 52702.24, 40751.32, 45515.93, 0.000, 0.000, 0.000, 14:51:35.434
123, 52558.58, 68957.43, -1724.86, 29106.40, 22691.69, 52697.23, 40765.85, 45535.78, 0.000, 0.000, 0.000, 14:51:35.434
124, 52528.57, 68950.08, -1726.92, 29107.74, 22686.48, 52702.57, 40762.59, 45544.65, 0.000, 0.000, 0.000, 14:51:35.435
125, 52552.55, 68977.80, -1717.82, 29112.01, 22693.23, 52708.12, 40766.25, 45548.85, 0.000, 0.000, 0.000, 14:51:35.435
126, 52586.59, 68980.77, -1723.68, 29105.57, 22688.79, 52705.34, 40752.04, 45534.75, 0.002, 0.910, 0.454, 14:51:35.436
127, 52572.98, 68977.95, -1734.32, 29109.06, 22680.49, 52706.64, 40755.32, 45534.32, 0.000, 0.000, 0.000, 14:51:35.436
128, 52545.30, 68955.95, -1727.57, 29104.05, 22697.14, 52700.58, 40775.73, 45546.84, 0.000, 0.000, 0.000, 14:51:35.436
129, 52527.87, 68959.02, -1727.86, 29102.26, 22693.66, 52701.14, 40773.11, 45541.86, 0.000, 0.000, 0.000, 14:51:35.437
130, 52536.79, 68952.29, -1722.85, 29104.47, 22693.08, 52701.46, 40767.21, 45540.63, 0.000, 0.000, 0.000, 14:51:35.437
131, 52564.21, 68967.06, -1730.20, 29102.64, 22689.63, 52701.43, 40753.40, 45529.83, 0.000, 0.000, 0.000, 14:51:35.437
132, 52602.10, 68964.18, -1739.68, 29104.41, 22684.29, 52706.60, 40751.34, 45528.20, 0.000, 0.000, 0.000, 14:51:35.437
133, 52573.98, 68967.47, -1728.39, 29104.61, 22695.11, 52708.23, 40769.56, 45550.15, 0.000, 0.000, 0.000, 14:51:35.438
134, 52556.84, 68955.42, -1731.08, 29102.71, 22688.54, 52699.04, 40760.02, 45540.11, 0.000, 0.000, 0.000, 14:51:35.438
135, 52555.41, 68959.33, -1729.58, 29102.64, 22688.83, 52693.30, 40750.80, 45533.03, 0.000, 0.000, 0.000, 14:51:35.438
136, 52589.52, 68974.15, -1734.56, 29103.51, 22689.05, 52692.63, 40744.41, 45521.92, -0.002, 0.916, 0.458, 14:51:35.439
137, 52609.14, 68978.62, -1743.08, 29110.31, 22683.64, 52700.54, 40749.87, 45528.22, 0.000, 0.000, 0.000, 14:51:35.439
138, 52561.85, 68969.61, -1731.72, 29109.64, 22700.90, 52697.16, 40771.66, 45543.11, 0.000, 0.000, 0.000, 14:51:35.440
139, 52561.31, 68983.13, -1735.08, 29103.74, 22696.61, 52690.05, 40764.08, 45536.29, 0.000, 0.000, 0.000, 14:51:35.440
140, 52591.30, 68985.08, -1736.44, 29100.05, 22692.67, 52689.30, 40753.78, 45529.23, 0.000, 0.000, 0.000, 14:51:35.440
141, 52576.64, 68984.68, -1738.56, 29104.63, 22690.10, 52694.86, 40756.80, 45524.87, 0.000, 0.000, 0.000, 14:51:35.441
142, 52533.71, 68978.17, -1744.04, 29110.67, 22683.69, 52696.29, 40755.75, 45515.35, 0.000, 0.000, 0.000, 14:51:35.441
143, 52536.10, 68957.66, -1725.38, 29116.19, 22700.05, 52703.38, 40778.21, 45545.01, 0.000, 0.000, 0.000, 14:51:35.441
144, 52522.75, 68931.77, -1724.97, 29114.91, 22692.03, 52705.03, 40775.37, 45557.01, 0.000, 0.000, 0.000, 14:51:35.441
145, 52535.32, 68949.70, -1721.06, 29112.50, 22690.91, 52705.75, 40766.59, 45548.09, 0.000, 0.000, 0.000, 14:51:35.442
146, 52568.35, 68969.91, -1729.06, 29106.87, 22682.17, 52694.48, 40744.10, 45524.73, -0.004, 0.912, 0.454, 14:51:35.442
147, 52590.39, 68985.08, -1738.07, 29108.92, 22676.13, 52697.95, 40735.65, 45513.13, 0.000, 0.000, 0.000, 14:51:35.442
148, 52558.32, 68972.43, -1729.13, 29105.01, 22693.95, 52701.21, 40763.41, 45522.93, 0.000, 0.000, 0.000, 14:51:35.443
149, 52553.20, 68965.97, -1725.64, 29107.96, 22693.14, 52704.23, 40771.21, 45550.57, 0.000, 0.000, 0.000, 14:51:35.443
150, 52588.73, 68975.45, -1720.73, 29113.41, 22694.26, 52702.77, 40769.11, 45555.25, 0.000, 0.000, 0.000, 14:51:35.443
151, 52597.83, 68988.68, -1733.82, 29105.01, 22684.23, 52696.79, 40752.30, 45523.02, 0.000, 0.000, 0.000, 14:51:35.443
152, 52561.76, 68996.01, -1746.86, 29105.39, 22676.94, 52702.13, 40745.91, 45521.63, 0.000, 0.000, 0.000, 14:51:35.444
153, 52562.38, 68984.32, -1733.67, 29109.35, 22702.08, 52701.07, 40764.15, 45550.20, 0.000, 0.000, 0.000, 14:51:35.444
154, 52601.05, 68970.24, -1726.52, 29109.10, 22702.17, 52702.98, 40766.14, 45549.95, 0.000, 0.000, 0.000, 14:51:35.444
155, 52593.68, 68975.09, -1724.88, 29100.58, 22695.98, 52705.19, 40758.02, 45538.10, 0.000, 0.000, 0.000, 14:51:35.445
156, 52523.80, 68957.09, -1731.08, 29100.65, 22692.59, 52697.63, 40746.00, 45525.45, -0.004, 0.912, 0.456, 14:51:35.445
157, 52533.44, 68972.38, -1734.16, 29110.64, 22693.39, 52701.12, 40746.13, 45528.54, 0.000, 0.000, 0.000, 14:51:35.445
158, 52536.23, 68956.18, -1723.81, 29108.92, 22702.49, 52703.85, 40770.50, 45553.26, 0.000, 0.000, 0.000, 14:51:35.446
159, 52524.65, 68924.24, -1726.54, 29110.55, 22695.56, 52703.20, 40770.72, 45546.95, 0.000, 0.000, 0.000, 14:51:35.446
160, 52527.96, 68946.32, -1728.17, 29106.64, 22691.54, 52695.78, 40757.71, 45533.32, 0.000, 0.000, 0.000, 14:51:35.446
161, 52546.04, 68965.16, -1735.86, 29105.68, 22682.08, 52690.61, 40743.45, 45512.93, 0.000, 0.000, 0.000, 14:51:35.447
162, 52554.29, 68960.70, -1740.66, 29113.39, 22678.79, 52697.68, 40746.36, 45514.05, 0.000, 0.000, 0.000, 14:51:35.447
163, 52550.36, 68944.00, -1731.05, 29108.32, 22693.30, 52692.94, 40762.88, 45528.47, 0.000, 0.000, 0.000, 14:51:35.448
164, 52540.59, 68945.27, -1731.84, 29103.78, 22689.86, 52690.35, 40764.42, 45529.47, 0.000, 0.000, 0.000, 14:51:35.448
165, 52564.80, 68960.47, -1727.61, 29103.96, 22687.58, 52701.66, 40763.39, 45538.62, -0.004, 0.912, 0.458, 14:51:35.448
166, 52573.58, 68976.99, -1732.01, 29101.93, 22679.26, 52697.05, 40746.87, 45516.35, 0.000, 0.000, 0.000, 14:51:35.449
167, 52588.60, 68993.77, -1737.67, 29104.25, 22681.50, 52700.41, 40742.65, 45514.05, 0.000, 0.000, 0.000, 14:51:35.449
168, 52568.46, 68970.77, -1732.68, 29096.74, 22695.83, 52695.33, 40761.46, 45536.05, 0.000, 0.000, 0.000, 14:51:35.449
169, 52573.85, 68963.18, -1732.80, 29097.01, 22688.09, 52695.82, 40759.95, 45530.97, 0.000, 0.000, 0.000, 14:51:35.450
170, 52568.86, 68973.75, -1725.49, 29100.23, 22686.93, 52696.89, 40758.81, 45528.98, 0.000, 0.000, 0.000, 14:51:35.450
171, 52568.60, 68979.94, -1743.28, 29090.46, 22668.80, 52686.39, 40733.66, 45514.32, 0.000, 0.000, 0.000, 14:51:35.450
172, 52565.00, 68997.09, -1753.20, 29094.21, 22659.84, 52693.25, 40720.88, 45515.62, 0.000, 0.000, 0.000, 14:51:35.451
173, 52605.54, 68971.49, -1736.71, 29095.94, 22677.81, 52692.25, 40751.66, 45533.50, 0.000, 0.000, 0.000, 14:51:35.451
174, 52535.63, 68961.48, -1721.17, 29110.91, 22686.35, 52700.74, 40772.20, 45546.55, 0.000, 0.000, 0.000, 14:51:35.451
175, 52505.68, 68964.27, -1717.55, 29113.53, 22688.07, 52703.64, 40767.50, 45546.19, -0.002, 0.908, 0.462, 14:51:35.452
176, 52523.49, 68978.66, -1728.48, 29108.36, 22679.11, 52698.24, 40750.61, 45528.09, 0.000, 0.000, 0.000, 14:51:35.452
177, 52553.44, 68983.23, -1735.05, 29114.89, 22674.23, 52706.39, 40740.84, 45528.73, 0.000, 0.000, 0.000, 14:51:35.452
178, 52555.95, 68984.03, -1725.80, 29112.59, 22694.91, 52700.50, 40759.68, 45533.68, 0.000, 0.000, 0.000, 14:51:35.453
179, 52569.54, 68978.17, -1723.14, 29115.65, 22698.55, 52699.98, 40770.83, 45540.58, 0.000, 0.000, 0.000, 14:51:35.453
180, 52584.96, 68970.51, -1722.40, 29110.89, 22685.43, 52696.05, 40755.61, 45540.05, 0.000, 0.000, 0.000, 14:51:35.453
181, 52594.73, 68988.68, -1735.68, 29101.37, 22667.33, 52686.70, 40731.23, 45515.77, 0.000, 0.000, 0.000, 14:51:35.453
182, 52600.45, 69003.38, -1745.05, 29105.86, 22665.85, 52691.73, 40727.43, 45509.80, 0.000, 0.000, 0.000, 14:51:35.455
183, 52586.70, 68980.79, -1739.73, 29103.51, 22677.74, 52688.71, 40743.45, 45521.54, 0.000, 0.000, 0.000, 14:51:35.456
184, 52576.17, 68965.55, -1745.20, 29103.36, 22671.69, 52685.12, 40750.61, 45517.80, 0.000, 0.000, 0.000, 14:51:35.456
185, 52574.77, 68969.19, -1739.28, 29106.28, 22675.49, 52684.69, 40746.07, 45516.40, 0.002, 0.904, 0.456, 14:51:35.457
186, 52570.09, 68979.76, -1736.86, 29111.83, 22678.53, 52692.34, 40747.81, 45523.75, 0.000, 0.000, 0.000, 14:51:35.458
187, 52561.27, 68993.64, -1745.20, 29114.26, 22673.79, 52699.02, 40740.97, 45515.28, 0.000, 0.000, 0.000, 14:51:35.459
188, 52574.95, 68972.45, -1739.95, 29103.54, 22686.26, 52695.11, 40755.30, 45537.83, 0.000, 0.000, 0.000, 14:51:35.460
189, 52581.49, 68963.58, -1738.83, 29102.08, 22684.23, 52699.93, 40752.66, 45542.64, 0.000, 0.000, 0.000, 14:51:35.460
190, 52605.70, 68996.97, -1733.13, 29101.75, 22686.55, 52684.42, 40749.80, 45521.94, 0.000, 0.000, 0.000, 14:51:35.460
191, 52603.67, 69005.11, -1741.36, 29099.00, 22677.03, 52673.56, 40735.56, 45495.03, 0.000, 0.000, 0.000, 14:51:35.461
192, 52524.14, 68992.26, -1754.16, 29103.07, 22661.61, 52681.47, 40722.51, 45506.77, 0.000, 0.000, 0.000, 14:51:35.461
193, 52512.11, 68954.70, -1735.08, 29111.38, 22684.14, 52692.70, 40752.95, 45547.67, 0.000, 0.000, 0.000, 14:51:35.461
194, 52526.06, 68940.11, -1728.48, 29112.34, 22682.91, 52693.54, 40757.87, 45544.56, 0.000, 0.000, 0.000, 14:51:35.462
195, 52549.08, 68954.91, -1721.80, 29112.77, 22685.88, 52697.52, 40754.83, 45545.14, 0.002, 0.918, 0.458, 14:51:35.462
196, 52581.61, 68970.40, -1734.18, 29101.26, 22682.17, 52689.48, 40740.21, 45528.47, 0.000, 0.000, 0.000, 14:51:35.462
197, 52597.77, 68995.66, -1744.04, 29103.56, 22681.90, 52694.70, 40742.42, 45520.96, 0.000, 0.000, 0.000, 14:51:35.462
198, 52582.99, 68984.95, -1733.20, 29102.10, 22703.45, 52696.92, 40775.64, 45545.63, 0.000, 0.000, 0.000, 14:51:35.463
199, 52567.86, 68958.88, -1737.78, 29099.42, 22700.52, 52696.56, 40776.80, 45551.20, 0.000, 0.000, 0.000, 14:51:35.463
200, 52556.28, 68971.60, -1732.13, 29100.47, 22705.79, 52690.93, 40770.74, 45543.31, 0.000, 0.000, 0.000, 14:51:35.463
201, 52559.48, 68967.96, -1737.22, 29098.60, 22705.48, 52689.95, 40758.29, 45530.82, 0.000, 0.000, 0.000, 14:51:35.464
202, 52559.77, 68965.10, -1749.11, 29101.39, 22687.60, 52697.34, 40748.04, 45528.47, 0.000, 0.000, 0.000, 14:51:35.464
203, 52554.89, 68959.04, -1735.66, 29103.11, 22702.64, 52699.67, 40773.34, 45545.97, 0.000, 0.000, 0.000, 14:51:35.464
204, 52553.91, 68965.79, -1729.27, 29109.10, 22699.40, 52704.47, 40770.74, 45550.44, 0.000, 0.000, 0.000, 14:51:35.465
205, 52559.21, 68982.04, -1725.71, 29106.08, 22698.55, 52701.57, 40767.12, 45539.62, -0.004, 0.914, 0.456, 14:51:35.465
206, 52564.57, 68997.04, -1731.01, 29106.62, 22695.76, 52706.33, 40754.43, 45524.69, 0.000, 0.000, 0.000, 14:51:35.465
207, 52584.31, 68990.47, -1742.77, 29108.03, 22686.88, 52713.70, 40751.77, 45529.59, 0.000, 0.000, 0.000, 14:51:35.466
208, 52591.95, 68971.31, -1726.34, 29108.36, 22709.04, 52718.40, 40782.95, 45560.32, 0.000, 0.000, 0.000, 14:51:35.466
209, 52544.68, 68960.56, -1724.28, 29105.86, 22705.59, 52715.83, 40783.17, 45549.61, 0.000, 0.000, 0.000, 14:51:35.466
210, 52565.07, 68966.38, -1718.13, 29106.91, 22706.53, 52716.34, 40781.00, 45535.11, 0.000, 0.000, 0.000, 14:51:35.467
211, 52593.88, 68994.38, -1725.26, 29103.71, 22701.04, 52720.45, 40768.29, 45536.61, 0.000, 0.000, 0.000, 14:51:35.467
212, 52586.30, 69002.25, -1736.80, 29104.83, 22695.22, 52722.38, 40761.45, 45538.57, 0.000, 0.000, 0.000, 14:51:35.467
213, 52562.36, 68981.15, -1726.16, 29101.84, 22717.17, 52719.07, 40787.55, 45552.52, 0.000, 0.000, 0.000, 14:51:35.467
214, 52550.49, 68959.22, -1722.54, 29099.49, 22717.91, 52722.73, 40797.99, 45559.40, 0.000, 0.000, 0.000, 14:51:35.468
215, 52564.11, 68947.15, -1719.59, 29096.85, 22716.21, 52715.52, 40787.30, 45557.32, 0.000, 0.908, 0.450, 14:51:35.468
216, 52593.25, 68971.29, -1725.98, 29097.32, 22712.86, 52709.05, 40772.55, 45547.45, 0.000, 0.000, 0.000, 14:51:35.468
217, 52621.68, 68999.20, -1732.01, 29109.66, 22713.48, 52718.67, 40767.08, 45546.21, 0.000, 0.000, 0.000, 14:51:35.485
218, 52569.74, 68978.04, -1716.82, 29114.15, 22736.82, 52722.45, 40800.23, 45581.78, 0.000, 0.000, 0.000, 14:51:35.486
219, 52526.17, 68965.37, -1718.67, 29109.82, 22730.99, 52715.07, 40803.53, 45569.64, 0.000, 0.000, 0.000, 14:51:35.486
220, 52554.96, 68970.73, -1721.89, 29105.19, 22717.91, 52713.86, 40792.69, 45558.02, 0.000, 0.000, 0.000, 14:51:35.487
221, 52576.98, 68989.66, -1727.61, 29102.69, 22709.51, 52716.61, 40768.91, 45551.89, 0.000, 0.000, 0.000, 14:51:35.487
222, 52588.54, 68979.11, -1737.09, 29103.74, 22705.59, 52717.23, 40757.69, 45541.30, 0.000, 0.000, 0.000, 14:51:35.487
223, 52551.27, 68973.81, -1732.13, 29101.21, 22720.46, 52716.92, 40784.76, 45559.20, 0.000, 0.000, 0.000, 14:51:35.488
224, 52565.29, 68973.48, -1723.36, 29105.75, 22727.63, 52726.73, 40805.81, 45567.58, 0.000, 0.000, 0.000, 14:51:35.488
225, 52553.29, 68970.30, -1721.51, 29099.67, 22724.04, 52722.20, 40799.82, 45558.75, 0.004, 0.904, 0.458, 14:51:35.488
226, 52554.58, 68998.23, -1730.63, 29099.69, 22713.04, 52705.16, 40776.91, 45541.61, 0.000, 0.000, 0.000, 14:51:35.488
227, 52573.45, 69000.34, -1736.22, 29110.53, 22709.62, 52710.62, 40771.57, 45538.84, 0.000, 0.000, 0.000, 14:51:35.489
228, 52600.22, 68993.10, -1728.04, 29110.55, 22726.11, 52709.41, 40795.31, 45557.59, 0.000, 0.000, 0.000, 14:51:35.489
229, 52603.22, 68972.52, -1732.08, 29107.67, 22720.28, 52704.20, 40789.77, 45551.31, 0.000, 0.000, 0.000, 14:51:35.489
230, 52561.64, 68977.44, -1718.04, 29119.18, 22715.38, 52711.76, 40786.75, 45549.68, 0.000, 0.000, 0.000, 14:51:35.491
231, 52556.53, 68979.63, -1725.31, 29114.62, 22703.92, 52708.72, 40767.30, 45531.26, 0.000, 0.000, 0.000, 14:51:35.493
232, 52563.66, 68992.03, -1736.37, 29116.74, 22695.25, 52713.08, 40757.60, 45530.19, 0.000, 0.000, 0.000, 14:51:35.493
233, 52587.24, 68988.45, -1720.73, 29118.85, 22709.95, 52717.44, 40782.41, 45554.17, 0.000, 0.000, 0.000, 14:51:35.494
234, 52581.88, 68978.11, -1711.99, 29119.81, 22713.93, 52719.40, 40788.00, 45559.09, 0.004, 0.912, 0.458, 14:51:35.494
235, 52568.89, 68978.58, -1709.82, 29114.33, 22712.26, 52715.49, 40780.31, 45552.74, 0.000, 0.000, 0.000, 14:51:35.494
236, 52573.04, 68975.94, -1723.86, 29104.67, 22701.04, 52702.91, 40757.13, 45525.18, 0.000, 0.000, 0.000, 14:51:35.495
237, 52588.31, 68974.20, -1730.63, 29108.03, 22699.85, 52706.77, 40760.95, 45508.30, 0.000, 0.000, 0.000, 14:51:35.504
238, 52590.75, 68965.27, -1721.37, 29101.95, 22714.27, 52703.96, 40782.75, 45535.75, 0.000, 0.000, 0.000, 14:51:35.505
239, 52561.11, 68977.23, -1715.32, 29107.92, 22716.88, 52712.96, 40788.13, 45568.79, 0.000, 0.000, 0.000, 14:51:35.506
240, 52574.45, 68994.98, -1706.42, 29112.54, 22720.08, 52715.76, 40780.29, 45558.20, 0.000, 0.000, 0.000, 14:51:35.509
241, 52595.46, 69017.22, -1712.43, 29111.27, 22717.33, 52713.95, 40779.15, 45547.02, 0.000, 0.000, 0.000, 14:51:35.909
242, 52628.84, 69014.63, -1722.67, 29111.09, 22712.17, 52714.75, 40781.07, 45541.25, 0.000, 0.000, 0.000, 14:51:35.910
243, 52547.95, 68977.10, -1713.35, 29111.43, 22724.73, 52721.41, 40797.50, 45570.78, 0.000, 0.000, 0.000, 14:51:35.910
244, 52529.70, 68974.15, -1711.90, 29112.43, 22722.29, 52724.03, 40791.82, 45576.50, -0.002, 0.910, 0.452, 14:51:35.911
245, 52554.38, 68981.80, -1711.56, 29104.50, 22720.23, 52710.84, 40786.34, 45565.06, 0.000, 0.000, 0.000, 14:51:35.911
246, 52584.42, 68988.30, -1722.87, 29098.66, 22711.45, 52707.47, 40774.77, 45548.25, 0.000, 0.000, 0.000, 14:51:35.912
247, 52582.21, 69011.88, -1733.13, 29101.59, 22703.43, 52712.41, 40764.02, 45538.46, 0.000, 0.000, 0.000, 14:51:35.912
248, 52559.79, 69006.38, -1725.06, 29099.62, 22718.09, 52706.17, 40784.85, 45552.18, 0.000, 0.000, 0.000, 14:51:35.913
249, 52579.88, 68974.11, -1721.51, 29103.60, 22718.29, 52707.82, 40783.86, 45553.64, 0.000, 0.000, 0.000, 14:51:35.913
250, 52605.01, 68984.81, -1715.63, 29103.36, 22714.13, 52710.20, 40779.15, 45545.46, 0.000, 0.000, 0.000, 14:51:35.913
251, 52575.91, 68985.59, -1725.76, 29097.37, 22702.17, 52705.97, 40759.10, 45520.02, 0.000, 0.000, 0.000, 14:51:35.913
252, 52562.61, 68972.38, -1734.03, 29098.82, 22693.26, 52709.26, 40752.10, 45519.48, 0.000, 0.000, 0.000, 14:51:35.914
253, 52554.05, 68968.70, -1721.89, 29099.49, 22707.76, 52705.99, 40770.54, 45545.21, 0.000, 0.000, 0.000, 14:51:35.914
254, 52558.20, 68962.02, -1714.58, 29108.43, 22707.54, 52716.59, 40775.73, 45559.94, 0.004, 0.912, 0.450, 14:51:35.914
255, 52575.10, 68967.78, -1710.38, 29107.54, 22705.19, 52711.67, 40771.97, 45549.25, 0.000, 0.000, 0.000, 14:51:35.915
0, 52576.82, 68978.77, -1713.73, 29110.02, 22707.83, 52706.82, 40770.09, 45534.37, 0.000, 0.000, 0.000, 14:51:35.915
1, 52555.83, 68979.45, -1727.54, 29112.63, 22699.85, 52708.83, 40762.41, 45526.84, 0.000, 0.000, 0.000, 14:51:35.915
2, 52569.89, 68972.09, -1726.20, 29106.82, 22713.35, 52707.11, 40781.25, 45543.49, 0.000, 0.000, 0.000, 14:51:35.915
3, 52570.50, 68967.71, -1721.91, 29114.46, 22714.18, 52712.54, 40780.36, 45548.96, 0.000, 0.000, 0.000, 14:51:35.916
4, 52561.15, 68972.09, -1716.75, 29116.52, 22710.89, 52707.54, 40765.71, 45539.73, 0.000, 0.000, 0.000, 14:51:35.916
5, 52573.71, 68984.01, -1728.10, 29107.92, 22699.83, 52694.04, 40747.05, 45508.38, 0.000, 0.000, 0.000, 14:51:35.917
6, 52584.33, 69008.86, -1729.38, 29119.11, 22703.87, 52715.27, 40762.07, 45541.10, 0.000, 0.000, 0.000, 14:51:35.917
7, 52605.59, 68988.05, -1721.37, 29116.19, 22717.80, 52714.60, 40786.88, 45563.40, 0.000, 0.000, 0.000, 14:51:35.919
8, 52610.53, 68976.79, -1727.88, 29110.20, 22707.34, 52707.25, 40781.79, 45550.35, 0.000, 0.916, 0.452, 14:51:35.920
9, 52603.58, 68974.87, -1724.41, 29104.70, 22702.85, 52703.20, 40772.51, 45541.48, 0.000, 0.000, 0.000, 14:51:35.921
10, 52561.04, 68974.11, -1727.88, 29103.49, 22699.07, 52701.52, 40763.52, 45529.74, 0.000, 0.000, 0.000, 14:51:35.922
11, 52555.18, 68970.13, -1742.59, 29099.69, 22689.70, 52701.23, 40751.79, 45516.84, 0.000, 0.000, 0.000, 14:51:35.922
12, 52547.32, 68955.94, -1734.50, 29097.63, 22702.78, 52702.91, 40773.25, 45538.19, 0.000, 0.000, 0.000, 14:51:35.922
13, 52538.13, 68955.33, -1729.98, 29104.72, 22706.82, 52707.18, 40781.74, 45554.66, 0.000, 0.000, 0.000, 14:51:35.922
14, 52587.19, 68970.51, -1728.51, 29103.51, 22702.51, 52698.32, 40768.33, 45536.29, 0.000, 0.000, 0.000, 14:51:35.923
15, 52623.25, 68991.61, -1734.54, 29105.01, 22696.47, 52700.29, 40759.93, 45521.98, 0.000, 0.000, 0.000, 14:51:35.923
16, 52584.00, 69011.48, -1740.28, 29113.01, 22692.14, 52708.56, 40754.85, 45527.82, 0.000, 0.000, 0.000, 14:51:35.923
17, 52577.98, 69024.17, -1730.49, 29110.26, 22707.58, 52709.93, 40779.59, 45547.82, 0.000, 0.000, 0.000, 14:51:35.923
18, 52574.68, 68977.55, -1736.44, 29107.87, 22700.07, 52705.88, 40773.74, 45542.48, 0.002, 0.912, 0.452, 14:51:35.924
19, 52577.09, 68957.27, -1734.79, 29105.28, 22698.84, 52705.99, 40764.93, 45545.23, 0.000, 0.000, 0.000, 14:51:35.924
20, 52566.47, 68980.37, -1734.14, 29108.83, 22699.49, 52714.53, 40757.73, 45535.40, 0.000, 0.000, 0.000, 14:51:35.924
21, 52580.04, 68968.95, -1738.76, 29110.55, 22698.29, 52715.29, 40747.18, 45528.82, 0.000, 0.000, 0.000, 14:51:35.925
22, 52549.71, 68951.30, -1724.75, 29107.54, 22713.66, 52713.28, 40765.76, 45554.38, 0.000, 0.000, 0.000, 14:51:35.925
23, 52542.00, 68945.16, -1727.95, 29102.78, 22706.87, 52709.39, 40769.74, 45548.45, 0.000, 0.000, 0.000, 14:51:35.925
24, 52516.65, 68948.52, -1729.76, 29093.79, 22702.13, 52691.89, 40767.70, 45529.21, 0.000, 0.000, 0.000, 14:51:35.925
25, 52529.57, 68960.56, -1731.43, 29096.00, 22701.35, 52695.13, 40761.45, 45529.86, 0.000, 0.000, 0.000, 14:51:35.926
26, 52571.43, 68981.64, -1736.78, 29108.56, 22702.13, 52708.03, 40756.50, 45521.47, 0.000, 0.000, 0.000, 14:51:35.926
27, 52622.33, 68981.66, -1729.87, 29107.36, 22721.26, 52704.88, 40783.21, 45547.02, 0.000, 0.000, 0.000, 14:51:35.926
28, 52623.92, 68984.01, -1725.33, 29107.69, 22713.24, 52709.79, 40783.89, 45555.47, 0.004, 0.914, 0.454, 14:51:35.944
29, 52585.41, 68978.51, -1726.47, 29100.88, 22702.51, 52704.83, 40771.97, 45546.46, 0.000, 0.000, 0.000, 14:51:35.945
30, 52526.39, 68964.38, -1735.37, 29101.72, 22692.63, 52702.82, 40748.52, 45535.44, 0.000, 0.000, 0.000, 14:51:35.945
31, 52542.76, 68975.98, -1744.15, 29105.93, 22689.10, 52702.91, 40742.80, 45523.71, 0.000, 0.000, 0.000, 14:51:35.946
32, 52552.57, 68984.19, -1730.99, 29104.88, 22708.66, 52699.33, 40767.77, 45533.95, 0.000, 0.000, 0.000, 14:51:35.946
33, 52563.05, 68972.95, -1728.89, 29104.81, 22710.22, 52692.34, 40770.65, 45524.63, 0.000, 0.000, 0.000, 14:51:35.946
34, 52579.15, 68978.94, -1724.35, 29105.46, 22705.21, 52691.64, 40757.91, 45530.19, 0.000, 0.000, 0.000, 14:51:35.947
35, 52614.51, 68995.66, -1729.60, 29106.04, 22692.81, 52695.38, 40741.95, 45523.82, 0.000, 0.000, 0.000, 14:51:35.947
36, 52604.80, 68971.45, -1739.17, 29110.98, 22684.07, 52694.79, 40730.15, 45513.65, 0.000, 0.000, 0.000, 14:51:35.947
37, 52564.06, 68951.77, -1728.33, 29106.17, 22700.79, 52691.69, 40753.00, 45535.04, 0.000, 0.000, 0.000, 14:51:35.951
38, 52552.50, 68952.45, -1728.24, 29103.85, 22696.90, 52692.09, 40756.64, 45538.53, 0.004, 0.910, 0.456, 14:51:35.952
39, 52564.57, 68973.10, -1722.18, 29110.33, 22697.95, 52697.16, 40757.46, 45541.19, 0.000, 0.000, 0.000, 14:51:35.952
40, 52588.98, 68973.63, -1728.77, 29110.33, 22695.36, 52699.85, 40749.04, 45530.03, 0.000, 0.000, 0.000, 14:51:35.952
41, 52563.23, 68975.00, -1745.78, 29107.80, 22688.34, 52715.05, 40741.42, 45530.61, 0.000, 0.000, 0.000, 14:51:35.952
42, 52536.23, 68972.45, -1740.80, 29101.19, 22700.05, 52704.38, 40758.61, 45541.81, 0.000, 0.000, 0.000, 14:51:35.953
43, 52549.91, 68970.17, -1737.96, 29096.07, 22699.22, 52692.16, 40765.02, 45541.79, 0.000, 0.000, 0.000, 14:51:35.953
44, 52564.73, 68969.68, -1727.01, 29098.39, 22700.74, 52697.43, 40761.76, 45547.46, 0.000, 0.000, 0.000, 14:51:35.953
45, 52595.64, 68981.91, -1728.66, 29102.82, 22697.75, 52695.89, 40747.36, 45539.40, 0.000, 0.000, 0.000, 14:51:35.954
46, 52600.00, 68977.30, -1743.28, 29103.71, 22688.38, 52691.53, 40735.56, 45526.10, 0.000, 0.000, 0.000, 14:51:35.955
47, 52527.58, 68950.59, -1729.58, 29109.21, 22706.58, 52699.91, 40771.21, 45555.54, -0.002, 0.912, 0.458, 14:51:35.955
48, 52510.21, 68944.49, -1725.38, 29110.96, 22704.79, 52703.27, 40783.04, 45563.11, 0.000, 0.000, 0.000, 14:51:35.956
49, 52543.23, 68950.93, -1721.58, 29111.74, 22702.04, 52702.19, 40765.42, 45549.99, 0.000, 0.000, 0.000, 14:51:35.956
50, 52586.46, 68973.93, -1728.01, 29110.69, 22695.13, 52702.66, 40752.23, 45535.71, 0.000, 0.000, 0.000, 14:51:35.956
51, 52626.98, 68994.91, -1735.41, 29113.32, 22689.28, 52706.20, 40754.45, 45533.47, 0.000, 0.000, 0.000, 14:51:35.956
52, 52575.17, 68983.94, -1725.64, 29110.73, 22706.31, 52711.02, 40777.63, 45560.07, 0.000, 0.000, 0.000, 14:51:35.956
53, 52525.86, 68961.08, -1726.61, 29111.22, 22704.05, 52709.34, 40777.54, 45557.84, 0.000, 0.000, 0.000, 14:51:35.968
54, 52545.73, 68959.73, -1715.38, 29119.11, 22704.07, 52709.10, 40773.80, 45548.54, 0.000, 0.000, 0.000, 14:51:35.969
55, 52556.19, 68966.73, -1718.51, 29115.22, 22695.31, 52702.39, 40757.49, 45530.26, 0.000, 0.000, 0.000, 14:51:35.969
56, 52581.56, 68973.66, -1737.89, 29109.70, 22681.81, 52697.21, 40738.87, 45511.75, 0.000, 0.000, 0.000, 14:51:35.970
57, 52587.57, 68971.34, -1726.81, 29110.60, 22693.79, 52697.23, 40760.33, 45536.18, 0.000, 0.904, 0.456, 14:51:35.970
58, 52555.70, 68960.70, -1723.25, 29113.26, 22689.52, 52695.46, 40754.11, 45547.85, 0.000, 0.000, 0.000, 14:51:35.971
59, 52559.97, 68974.38, -1720.01, 29111.38, 22691.24, 52689.95, 40747.63, 45528.80, 0.000, 0.000, 0.000, 14:51:35.971
60, 52573.89, 68986.69, -1734.41, 29103.18, 22690.28, 52685.74, 40741.26, 45517.74, 0.000, 0.000, 0.000, 14:51:35.971
61, 52582.66, 68993.59, -1748.44, 29106.71, 22678.95, 52692.18, 40731.34, 45515.28, 0.000, 0.000, 0.000, 14:51:35.971
62, 52586.86, 68973.08, -1741.40, 29105.19, 22691.22, 52698.95, 40752.21, 45540.70, 0.000, 0.000, 0.000, 14:51:35.972
63, 52572.24, 68939.46, -1746.19, 29096.09, 22686.37, 52690.12, 40754.40, 45538.06, 0.000, 0.000, 0.000, 14:51:35.972
64, 52547.90, 68948.05, -1744.08, 29094.37, 22683.62, 52686.57, 40756.04, 45535.06, 0.000, 0.000, 0.000, 14:51:35.972
65, 52554.14, 68962.59, -1743.32, 29097.97, 22681.99, 52691.06, 40747.23, 45527.55, 0.000, 0.000, 0.000, 14:51:35.972
66, 52615.34, 68967.94, -1753.87, 29100.49, 22672.02, 52696.94, 40732.61, 45523.19, 0.000, 0.000, 0.000, 14:51:35.972
67, 52641.29, 68974.28, -1743.53, 29097.88, 22689.97, 52695.58, 40761.40, 45546.33, -0.002, 0.900, 0.452, 14:51:35.973
68, 52537.01, 68962.30, -1741.92, 29097.48, 22695.83, 52691.55, 40776.02, 45544.67, 0.000, 0.000, 0.000, 14:51:35.973
69, 52499.53, 68952.42, -1740.89, 29095.22, 22689.32, 52683.64, 40761.63, 45528.67, 0.000, 0.000, 0.000, 14:51:35.973
70, 52516.00, 68949.02, -1750.57, 29089.43, 22676.34, 52680.98, 40739.59, 45509.07, 0.000, 0.000, 0.000, 14:51:35.973
71, 52572.33, 68968.52, -1760.89, 29093.83, 22672.04, 52691.02, 40732.63, 45514.25, 0.000, 0.000, 0.000, 14:51:35.974
72, 52549.93, 68984.99, -1749.67, 29097.25, 22687.36, 52694.44, 40753.04, 45540.47, 0.000, 0.000, 0.000, 14:51:35.974
73, 52517.79, 68945.32, -1747.03, 29101.86, 22682.68, 52703.58, 40758.72, 45539.44, 0.000, 0.000, 0.000, 14:51:35.974
74, 52515.02, 68922.32, -1739.61, 29100.81, 22685.21, 52700.41, 40757.46, 45542.97, 0.000, 0.000, 0.000, 14:51:35.974
75, 52541.89, 68931.19, -1744.87, 29095.62, 22676.07, 52680.24, 40732.70, 45520.09, 0.000, 0.000, 0.000, 14:51:35.975
76, 52557.93, 68950.91, -1751.73, 29100.41, 22671.93, 52687.33, 40723.51, 45511.64, 0.000, 0.000, 0.000, 14:51:35.975
77, 52572.82, 68951.17, -1745.92, 29096.45, 22691.02, 52685.38, 40749.87, 45532.91, 0.004, 0.906, 0.454, 14:51:35.975
78, 52569.04, 68954.30, -1748.76, 29095.89, 22686.04, 52685.43, 40757.82, 45534.97, 0.000, 0.000, 0.000, 14:51:35.975
79, 52545.57, 68938.16, -1748.49, 29091.58, 22684.03, 52683.91, 40752.35, 45529.79, 0.000, 0.000, 0.000, 14:51:35.975
80, 52544.75, 68947.89, -1752.49, 29091.08, 22681.59, 52682.93, 40738.54, 45511.84, 0.000, 0.000, 0.000, 14:51:35.976
81, 52577.58, 68961.14, -1762.99, 29094.91, 22676.54, 52690.05, 40736.07, 45509.98, 0.000, 0.000, 0.000, 14:51:35.976
82, 52562.58, 68965.52, -1752.64, 29096.88, 22693.59, 52697.36, 40764.04, 45550.80, 0.000, 0.000, 0.000, 14:51:35.976
83, 52588.22, 68943.48, -1750.72, 29099.09, 22690.84, 52698.57, 40763.10, 45552.83, 0.000, 0.000, 0.000, 14:51:35.976
84, 52572.78, 68944.38, -1745.20, 29097.97, 22690.62, 52693.77, 40757.40, 45540.00, 0.000, 0.000, 0.000, 14:51:35.976
85, 52509.30, 68958.35, -1752.02, 29091.85, 22682.19, 52689.72, 40736.63, 45519.80, 0.000, 0.000, 0.000, 14:51:35.977
86, 52510.57, 68959.40, -1761.54, 29092.76, 22670.21, 52694.88, 40724.18, 45515.84, 0.000, 0.000, 0.000, 14:51:35.977
87, 52539.88, 68958.98, -1748.00, 29093.10, 22694.28, 52696.38, 40750.31, 45536.74, 0.004, 0.910, 0.458, 14:51:35.977
88, 52542.71, 68951.35, -1738.38, 29098.24, 22701.50, 52694.14, 40758.05, 45529.03, 0.000, 0.000, 0.000, 14:51:35.978
89, 52523.47, 68945.23, -1736.04, 29098.01, 22693.46, 52697.52, 40757.13, 45536.96, 0.000, 0.000, 0.000, 14:51:35.978
90, 52546.80, 68951.73, -1739.39, 29099.98, 22683.47, 52695.49, 40742.07, 45530.34, 0.000, 0.000, 0.000, 14:51:35.979
91, 52569.76, 68960.05, -1745.20, 29105.08, 22679.93, 52697.28, 40731.29, 45520.46, 0.000, 0.000, 0.000, 14:51:35.979
92, 52550.83, 68954.86, -1733.91, 29102.37, 22699.20, 52690.61, 40756.82, 45538.35, 0.000, 0.000, 0.000, 14:51:35.979
93, 52551.03, 68950.34, -1736.17, 29098.66, 22694.26, 52683.44, 40753.09, 45533.95, 0.000, 0.000, 0.000, 14:51:35.979
94, 52566.96, 68963.98, -1723.12, 29107.02, 22699.87, 52692.40, 40752.48, 45537.97, 0.000, 0.000, 0.000, 14:51:35.980
95, 52591.73, 68980.63, -1725.80, 29106.84, 22699.67, 52690.28, 40744.73, 45522.48, 0.000, 0.000, 0.000, 14:51:35.980
96, 52612.18, 68984.03, -1738.83, 29107.31, 22694.37, 52692.83, 40743.68, 45510.61, 0.000, 0.000, 0.000, 14:51:35.980
97, 52573.40, 68973.77, -1733.82, 29104.45, 22708.66, 52695.02, 40764.17, 45535.44, -0.002, 0.916, 0.460, 14:51:35.980
98, 52567.84, 68985.15, -1732.75, 29110.75, 22705.71, 52699.69, 40765.49, 45553.05, 0.000, 0.000, 0.000, 14:51:35.981
99, 52554.92, 68982.58, -1726.99, 29115.22, 22708.77, 52704.23, 40773.89, 45554.53, 0.000, 0.000, 0.000, 14:51:35.981
100, 52572.26, 68982.16, -1734.09, 29113.32, 22703.31, 52701.37, 40757.93, 45531.64, 0.000, 0.000, 0.000, 14:51:35.988
101, 52615.45, 68979.80, -1745.60, 29114.55, 22693.59, 52709.23, 40755.19, 45540.52, 0.000, 0.000, 0.000, 14:51:35.989
102, 52532.07, 68962.30, -1737.49, 29114.15, 22709.71, 52714.64, 40784.73, 45578.00, 0.000, 0.000, 0.000, 14:51:35.991
103, 52533.13, 68966.04, -1734.88, 29116.79, 22711.90, 52715.83, 40786.61, 45573.08, 0.000, 0.000, 0.000, 14:51:35.992
104, 52582.14, 68977.55, -1730.45, 29113.24, 22712.37, 52714.75, 40781.63, 45560.07, 0.000, 0.000, 0.000, 14:51:35.992
105, 52527.80, 68973.81, -1741.63, 29102.55, 22699.76, 52708.29, 40763.01, 45534.26, 0.000, 0.000, 0.000, 14:51:36.395
106, 52544.81, 68982.53, -1746.61, 29111.18, 22694.08, 52717.97, 40754.23, 45534.10, 0.000, 0.000, 0.000, 14:51:36.395
107, 52587.93, 68971.94, -1729.24, 29114.49, 22716.95, 52725.13, 40784.64, 45565.57, 0.002, 0.908, 0.460, 14:51:36.396
108, 52577.09, 68962.35, -1723.48, 29119.54, 22721.06, 52721.93, 40795.22, 45563.74, 0.000, 0.000, 0.000, 14:51:36.396
109, 52556.68, 68971.42, -1717.49, 29117.82, 22719.99, 52718.11, 40790.34, 45564.90, 0.000, 0.000, 0.000, 14:51:36.396
110, 52619.34, 68980.34, -1726.25, 29108.77, 22710.85, 52723.27, 40770.95, 45554.06, 0.000, 0.000, 0.000, 14:51:36.396
111, 52611.91, 68989.41, -1733.98, 29108.36, 22702.26, 52725.64, 40757.51, 45542.28, 0.000, 0.000, 0.000, 14:51:36.397
112, 52621.95, 68991.14, -1718.67, 29116.70, 22723.50, 52724.77, 40781.54, 45555.38, 0.000, 0.000, 0.000, 14:51:36.397
113, 52515.78, 68979.98, -1714.74, 29121.17, 22728.17, 52718.91, 40792.80, 45545.05, 0.000, 0.000, 0.000, 14:51:36.397
114, 52482.14, 68986.94, -1707.70, 29117.53, 22727.61, 52716.68, 40786.61, 45548.38, 0.000, 0.000, 0.000, 14:51:36.397
115, 52551.16, 68997.77, -1712.64, 29111.65, 22723.47, 52716.16, 40774.79, 45557.08, 0.000, 0.000, 0.000, 14:51:36.397
116, 52635.94, 68994.67, -1723.65, 29110.08, 22716.64, 52727.32, 40764.21, 45542.97, -0.004, 0.904, 0.464, 14:51:36.398
117, 52596.13, 68971.16, -1718.31, 29107.74, 22731.63, 52728.08, 40780.60, 45555.13, 0.000, 0.000, 0.000, 14:51:36.398
118, 52561.69, 68949.98, -1712.46, 29119.40, 22738.29, 52726.27, 40796.04, 45576.50, 0.000, 0.000, 0.000, 14:51:36.398
119, 52565.89, 68980.48, -1710.62, 29120.23, 22739.44, 52716.32, 40793.36, 45570.76, 0.000, 0.000, 0.000, 14:51:36.398
120, 52563.23, 69001.13, -1717.37, 29122.00, 22735.52, 52722.82, 40790.32, 45563.31, 0.000, 0.000, 0.000, 14:51:36.398
121, 52555.86, 68993.28, -1730.90, 29126.09, 22723.32, 52734.00, 40782.90, 45565.01, 0.000, 0.000, 0.000, 14:51:36.399
122, 52511.55, 68957.92, -1724.41, 29125.08, 22738.90, 52727.68, 40803.46, 45576.61, 0.000, 0.000, 0.000, 14:51:36.399
123, 52518.39, 68931.28, -1724.46, 29123.72, 22732.91, 52729.13, 40808.54, 45581.98, 0.000, 0.000, 0.000, 14:51:36.399
124, 52548.52, 68943.53, -1725.20, 29115.61, 22723.54, 52723.11, 40796.16, 45569.59, 0.000, 0.000, 0.000, 14:51:36.399
125, 52601.21, 68968.23, -1735.10, 29104.41, 22713.24, 52718.89, 40778.70, 45551.20, 0.000, 0.000, 0.000, 14:51:36.399
126, 52654.47, 68990.49, -1750.16, 29101.28, 22703.63, 52720.21, 40770.61, 45538.73, 0.002, 0.898, 0.462, 14:51:36.400
127, 52583.89, 68981.88, -1743.93, 29096.72, 22721.51, 52716.70, 40788.51, 45560.83, 0.000, 0.000, 0.000, 14:51:36.400
128, 52543.56, 68981.08, -1744.60, 29094.91, 22721.66, 52715.56, 40786.68, 45571.63, 0.000, 0.000, 0.000, 14:51:36.400
129, 52581.72, 68972.36, -1746.72, 29085.50, 22716.14, 52704.34, 40779.73, 45557.91, 0.000, 0.000, 0.000, 14:51:36.400
130, 52569.18, 68962.38, -1753.85, 29081.21, 22711.96, 52704.14, 40772.11, 45542.24, 0.000, 0.000, 0.000, 14:51:36.407
131, 52558.09, 68962.13, -1765.59, 29084.60, 22703.40, 52706.48, 40761.27, 45524.67, 0.000, 0.000, 0.000, 14:51:36.407
132, 52574.72, 68953.74, -1749.96, 29084.67, 22718.27, 52703.89, 40782.95, 45541.77, 0.000, 0.000, 0.000, 14:51:36.408
133, 52532.72, 68958.55, -1743.53, 29085.45, 22720.06, 52700.32, 40784.11, 45550.60, 0.000, 0.000, 0.000, 14:51:36.409
134, 52524.95, 68951.87, -1733.02, 29084.00, 22724.32, 52699.71, 40785.76, 45553.43, 0.000, 0.000, 0.000, 14:51:36.409
135, 52535.67, 68960.59, -1730.36, 29085.81, 22720.35, 52710.64, 40778.05, 45557.35, 0.000, 0.000, 0.000, 14:51:36.410
136, 52577.76, 68989.30, -1737.98, 29087.35, 22717.20, 52716.97, 40775.04, 45543.49, 0.000, 0.910, 0.460, 14:51:36.410
137, 52613.90, 68981.48, -1735.39, 29081.47, 22730.52, 52715.96, 40793.59, 45561.50, 0.000, 0.000, 0.000, 14:51:36.410
138, 52588.87, 68961.97, -1742.34, 29079.15, 22724.50, 52708.96, 40787.95, 45567.23, 0.000, 0.000, 0.000, 14:51:36.411
139, 52577.20, 68962.91, -1736.33, 29081.81, 22729.40, 52711.76, 40783.98, 45560.05, 0.000, 0.000, 0.000, 14:51:36.411
140, 52564.17, 68972.63, -1743.55, 29081.88, 22722.07, 52710.46, 40773.96, 45548.47, 0.000, 0.000, 0.000, 14:51:36.411
141, 52538.87, 68968.43, -1756.38, 29085.63, 22705.21, 52710.57, 40768.78, 45534.08, 0.000, 0.000, 0.000, 14:51:36.411
142, 52564.84, 68939.51, -1747.84, 29085.90, 22721.20, 52713.46, 40784.91, 45552.38, 0.000, 0.000, 0.000, 14:51:36.415
143, 52548.77, 68946.32, -1749.11, 29083.37, 22719.61, 52703.15, 40779.71, 45539.96, 0.000, 0.000, 0.000, 14:51:36.416
144, 52562.67, 68986.71, -1744.17, 29084.80, 22717.51, 52697.05, 40778.25, 45533.61, 0.000, 0.000, 0.000, 14:51:36.416
145, 52600.74, 68970.73, -1747.28, 29082.03, 22708.34, 52699.80, 40767.10, 45535.96, 0.000, 0.000, 0.000, 14:51:36.416
146, 52581.85, 68960.13, -1752.06, 29088.47, 22699.36, 52708.54, 40758.32, 45546.28, 0.002, 0.918, 0.450, 14:51:36.417
147, 52552.82, 68949.90, -1738.00, 29092.18, 22720.06, 52713.57, 40791.17, 45561.75, 0.000, 0.000, 0.000, 14:51:36.417
148, 52554.16, 68957.50, -1741.89, 29088.56, 22718.29, 52707.11, 40792.13, 45554.48, 0.000, 0.000, 0.000, 14:51:36.418
149, 52568.98, 68982.82, -1742.97, 29090.10, 22715.09, 52706.91, 40779.97, 45556.81, 0.000, 0.000, 0.000, 14:51:36.419
150, 52585.61, 68968.74, -1751.91, 29085.05, 22710.24, 52702.37, 40770.72, 45539.53, 0.000, 0.000, 0.000, 14:51:36.419
151, 52580.33, 68975.11, -1753.70, 29092.87, 22704.25, 52709.39, 40765.91, 45532.31, 0.000, 0.000, 0.000, 14:51:36.420
152, 52536.25, 68970.71, -1738.36, 29098.24, 22718.96, 52714.15, 40789.61, 45554.93, 0.000, 0.000, 0.000, 14:51:36.422
153, 52548.68, 68953.74, -1742.85, 29087.35, 22714.45, 52710.69, 40784.58, 45558.06, 0.000, 0.000, 0.000, 14:51:36.422
154, 52569.60, 68958.02, -1730.92, 29088.25, 22720.62, 52705.52, 40778.27, 45546.06, 0.000, 0.000, 0.000, 14:51:36.423
155, 52554.22, 68945.09, -1731.01, 29087.58, 22716.68, 52692.98, 40763.95, 45526.12, 0.000, 0.000, 0.000, 14:51:36.423
156, 52554.22, 68955.66, -1737.47, 29094.35, 22710.87, 52710.57, 40763.21, 45529.61, 0.002, 0.926, 0.454, 14:51:36.424
157, 52575.95, 68952.42, -1737.80, 29082.88, 22718.78, 52705.77, 40782.16, 45554.38, 0.000, 0.000, 0.000, 14:51:36.424
158, 52590.05, 68960.25, -1742.07, 29083.62, 22712.90, 52703.36, 40774.12, 45557.91, 0.000, 0.000, 0.000, 14:51:36.424
159, 52556.86, 68963.16, -1733.69, 29094.82, 22716.50, 52708.12, 40780.36, 45553.90, 0.000, 0.000, 0.000, 14:51:36.424
160, 52520.29, 68959.48, -1743.97, 29094.62, 22707.47, 52706.21, 40768.44, 45538.57, 0.000, 0.000, 0.000, 14:51:36.424
161, 52528.30, 68965.48, -1754.03, 29098.35, 22700.30, 52714.15, 40761.55, 45538.08, 0.000, 0.000, 0.000, 14:51:36.424
162, 52576.09, 68957.99, -1740.11, 29099.96, 22718.58, 52718.02, 40794.32, 45560.41, 0.000, 0.000, 0.000, 14:51:36.425
163, 52606.86, 68953.99, -1739.46, 29098.55, 22714.49, 52717.88, 40795.15, 45565.13, 0.000, 0.000, 0.000, 14:51:36.425
164, 52533.41, 68971.42, -1730.72, 29104.38, 22716.44, 52717.53, 40794.23, 45563.05, 0.000, 0.000, 0.000, 14:51:36.425
165, 52541.89, 68978.91, -1738.43, 29101.86, 22709.24, 52715.11, 40777.05, 45544.47, 0.000, 0.000, 0.000, 14:51:36.425
166, 52562.85, 68982.80, -1753.20, 29099.87, 22697.48, 52716.99, 40759.54, 45537.97, 0.002, 0.920, 0.454, 14:51:36.425
167, 52524.92, 68965.63, -1744.08, 29100.05, 22713.86, 52721.39, 40777.36, 45557.05, 0.000, 0.000, 0.000, 14:51:36.426
168, 52526.33, 68961.50, -1743.88, 29096.70, 22710.11, 52716.72, 40777.94, 45552.86, 0.000, 0.000, 0.000, 14:51:36.426
169, 52552.17, 68965.41, -1740.44, 29093.54, 22709.10, 52711.02, 40774.83, 45541.50, 0.000, 0.000, 0.000, 14:51:36.426
170, 52584.98, 68959.29, -1743.37, 29097.08, 22707.52, 52717.35, 40772.26, 45543.93, 0.000, 0.000, 0.000, 14:51:36.426
171, 52636.32, 68993.64, -1745.49, 29105.86, 22702.02, 52731.43, 40769.11, 45551.49, 0.000, 0.000, 0.000, 14:51:36.426
172, 52597.77, 68990.69, -1739.06, 29095.35, 22714.27, 52726.11, 40775.59, 45560.39, 0.000, 0.000, 0.000, 14:51:36.426
173, 52554.34, 68942.81, -1733.22, 29093.81, 22706.71, 52720.57, 40781.20, 45560.18, 0.000, 0.000, 0.000, 14:51:36.427
174, 52571.77, 68942.61, -1724.37, 29097.61, 22710.22, 52718.55, 40787.73, 45554.64, 0.000, 0.000, 0.000, 14:51:36.427
175, 52551.43, 68959.64, -1729.85, 29100.00, 22711.09, 52719.31, 40774.32, 45540.63, 0.000, 0.000, 0.000, 14:51:36.427
176, 52551.05, 68959.02, -1750.52, 29095.13, 22695.13, 52710.02, 40751.61, 45519.64, 0.004, 0.912, 0.456, 14:51:36.427
177, 52565.58, 68956.83, -1747.66, 29089.92, 22705.44, 52708.54, 40766.63, 45529.41, 0.000, 0.000, 0.000, 14:51:36.427
178, 52585.56, 68964.47, -1747.21, 29088.76, 22706.85, 52709.73, 40777.76, 45538.17, 0.000, 0.000, 0.000, 14:51:36.427
179, 52564.21, 68976.12, -1738.03, 29097.21, 22710.31, 52706.04, 40773.69, 45537.18, 0.000, 0.000, 0.000, 14:51:36.437
180, 52546.16, 68962.93, -1746.05, 29092.29, 22709.48, 52696.89, 40749.75, 45518.63, 0.000, 0.000, 0.000, 14:51:36.437
181, 52553.89, 68973.93, -1754.97, 29096.16, 22697.84, 52702.91, 40740.50, 45512.53, 0.000, 0.000, 0.000, 14:51:36.437
182, 52555.50, 68968.80, -1742.30, 29097.70, 22708.16, 52706.77, 40770.65, 45541.61, 0.000, 0.000, 0.000, 14:51:36.438
183, 52557.80, 68953.43, -1738.74, 29097.30, 22709.68, 52704.41, 40767.86, 45540.79, 0.000, 0.000, 0.000, 14:51:36.438
184, 52545.95, 68981.02, -1734.47, 29097.08, 22709.30, 52702.42, 40760.48, 45538.91, 0.000, 0.000, 0.000, 14:51:36.438
185, 52564.51, 68989.59, -1737.58, 29097.37, 22712.72, 52705.05, 40762.96, 45531.69, 0.000, 0.000, 0.000, 14:51:36.438
186, 52594.57, 68974.59, -1753.34, 29094.77, 22702.29, 52704.20, 40748.97, 45509.80, 0.010, 0.908, 0.454, 14:51:36.438
187, 52606.08, 68970.46, -1749.74, 29090.08, 22713.53, 52700.47, 40758.98, 45521.02, 0.000, 0.000, 0.000, 14:51:36.438
188, 52597.54, 68965.16, -1739.97, 29097.57, 22719.72, 52712.52, 40767.43, 45550.20, 0.000, 0.000, 0.000, 14:51:36.439
189, 52577.07, 68947.48, -1734.58, 29097.61, 22711.34, 52710.80, 40765.76, 45551.25, 0.000, 0.000, 0.000, 14:51:36.439
190, 52541.15, 68956.74, -1736.51, 29101.43, 22704.10, 52693.86, 40753.71, 45528.40, 0.000, 0.000, 0.000, 14:51:36.439
191, 52535.09, 68974.59, -1739.44, 29110.78, 22703.18, 52696.67, 40746.04, 45519.86, 0.000, 0.000, 0.000, 14:51:36.439
192, 52567.41, 68980.16, -1726.65, 29110.87, 22725.22, 52700.65, 40769.89, 45541.97, 0.000, 0.000, 0.000, 14:51:36.439
193, 52555.88, 68952.98, -1732.39, 29101.30, 22712.52, 52693.16, 40766.94, 45540.98, 0.000, 0.000, 0.000, 14:51:36.439
194, 52541.02, 68946.28, -1730.09, 29098.08, 22707.16, 52691.96, 40762.41, 45534.26, 0.000, 0.000, 0.000, 14:51:36.439
195, 52562.90, 68963.58, -1737.83, 29096.79, 22699.78, 52694.77, 40750.20, 45523.82, 0.008, 0.908, 0.460, 14:51:36.440
196, 52569.76, 68974.91, -1751.91, 29097.12, 22691.96, 52695.71, 40738.45, 45516.82, 0.000, 0.000, 0.000, 14:51:36.440
197, 52583.55, 68976.88, -1745.63, 29095.60, 22709.06, 52692.96, 40759.03, 45529.96, 0.000, 0.000, 0.000, 14:51:36.440
198, 52555.75, 68965.37, -1743.37, 29094.91, 22710.38, 52690.93, 40762.88, 45532.87, 0.000, 0.000, 0.000, 14:51:36.440
199, 52550.80, 68965.16, -1745.38, 29089.79, 22703.54, 52685.63, 40751.72, 45531.24, 0.000, 0.000, 0.000, 14:51:36.440
200, 52585.38, 68969.75, -1754.75, 29081.92, 22689.46, 52680.49, 40738.58, 45517.98, 0.000, 0.000, 0.000, 14:51:36.440
201, 52602.41, 68966.84, -1770.06, 29083.82, 22672.80, 52679.82, 40723.16, 45493.71, 0.000, 0.000, 0.000, 14:51:36.440
202, 52555.27, 68967.67, -1755.55, 29090.35, 22698.60, 52693.01, 40754.52, 45527.35, 0.000, 0.000, 0.000, 14:51:36.440
203, 52529.44, 68941.54, -1748.76, 29092.11, 22698.69, 52700.29, 40769.60, 45553.32, 0.000, 0.000, 0.000, 14:51:36.441
204, 52528.00, 68931.05, -1741.56, 29094.97, 22695.80, 52700.76, 40768.38, 45552.70, 0.000, 0.000, 0.000, 14:51:36.441
205, 52549.98, 68945.48, -1743.86, 29098.06, 22692.34, 52694.23, 40751.86, 45535.33, 0.004, 0.908, 0.458, 14:51:36.441
206, 52540.37, 68966.15, -1753.56, 29101.72, 22685.43, 52697.92, 40744.08, 45520.98, 0.000, 0.000, 0.000, 14:51:36.441
207, 52536.37, 68951.62, -1741.63, 29104.83, 22705.62, 52703.87, 40778.05, 45553.95, 0.000, 0.000, 0.000, 14:51:36.441
208, 52558.34, 68946.61, -1739.90, 29104.85, 22704.32, 52707.33, 40779.84, 45566.87, 0.000, 0.000, 0.000, 14:51:36.441
209, 52586.43, 68964.54, -1731.97, 29105.19, 22704.03, 52709.68, 40775.32, 45558.33, 0.000, 0.000, 0.000, 14:51:36.441
210, 52604.40, 68983.92, -1739.17, 29094.91, 22694.80, 52695.04, 40757.24, 45524.94, 0.000, 0.000, 0.000, 14:51:36.442
211, 52605.57, 69006.60, -1748.85, 29096.74, 22686.64, 52697.01, 40743.92, 45520.49, 0.000, 0.000, 0.000, 14:51:36.442
212, 52553.73, 68972.63, -1740.02, 29093.43, 22697.44, 52688.74, 40751.54, 45537.34, 0.000, 0.000, 0.000, 14:51:36.442
213, 52535.89, 68952.85, -1741.29, 29087.62, 22696.03, 52689.25, 40744.01, 45531.35, 0.000, 0.000, 0.000, 14:51:36.442
214, 52541.55, 68949.85, -1732.62, 29089.19, 22702.38, 52705.64, 40747.21, 45535.48, 0.000, 0.000, 0.000, 14:51:36.442
215, 52567.84, 68943.87, -1741.29, 29082.86, 22701.08, 52696.79, 40742.00, 45522.12, 0.002, 0.910, 0.458, 14:51:36.442
216, 52606.24, 68964.80, -1758.77, 29084.40, 22679.06, 52688.07, 40724.86, 45506.29, 0.000, 0.000, 0.000, 14:51:36.443
217, 52556.08, 68948.24, -1750.66, 29088.51, 22692.21, 52687.33, 40748.75, 45527.48, 0.000, 0.000, 0.000, 14:51:36.443
218, 52530.49, 68941.18, -1745.60, 29093.86, 22694.48, 52689.79, 40761.02, 45544.36, 0.000, 0.000, 0.000, 14:51:36.443
219, 52556.91, 68952.88, -1739.14, 29095.20, 22693.72, 52692.52, 40765.73, 45546.80, 0.000, 0.000, 0.000, 14:51:36.443
220, 52591.77, 68981.03, -1750.79, 29084.63, 22684.40, 52687.17, 40748.44, 45526.32, 0.000, 0.000, 0.000, 14:51:36.443
221, 52629.37, 69012.59, -1763.75, 29089.21, 22678.10, 52691.96, 40734.98, 45512.57, 0.000, 0.000, 0.000, 14:51:36.443
222, 52558.18, 68968.49, -1749.07, 29099.87, 22700.74, 52703.47, 40769.00, 45546.73, 0.000, 0.000, 0.000, 14:51:36.444
223, 52523.38, 68931.28, -1744.98, 29102.10, 22697.73, 52705.72, 40775.13, 45556.63, 0.000, 0.000, 0.000, 14:51:36.444
224, 52539.67, 68938.23, -1740.24, 29100.21, 22696.77, 52702.13, 40766.41, 45546.66, 0.000, 0.000, 0.000, 14:51:36.444
225, 52560.24, 68966.33, -1749.16, 29093.90, 22690.28, 52696.23, 40750.40, 45523.59, 0.004, 0.908, 0.458, 14:51:36.873
226, 52589.45, 68984.19, -1764.38, 29093.28, 22681.83, 52698.06, 40738.09, 45509.51, 0.000, 0.000, 0.000, 14:51:36.873
227, 52601.61, 68955.42, -1761.25, 29089.43, 22694.60, 52698.30, 40754.79, 45544.54, 0.000, 0.000, 0.000, 14:51:36.874
228, 52562.88, 68930.85, -1756.56, 29093.77, 22698.60, 52695.82, 40764.98, 45550.13, 0.000, 0.000, 0.000, 14:51:36.874
229, 52548.10, 68945.48, -1750.21, 29094.73, 22693.72, 52694.55, 40755.25, 45539.71, 0.000, 0.000, 0.000, 14:51:36.874
230, 52545.73, 68965.57, -1753.29, 29089.48, 22683.58, 52692.98, 40734.46, 45522.21, 0.000, 0.000, 0.000, 14:51:36.874
231, 52563.99, 68959.51, -1762.30, 29088.11, 22673.63, 52694.82, 40727.87, 45509.43, 0.000, 0.000, 0.000, 14:51:36.875
232, 52557.20, 68941.80, -1760.38, 29083.06, 22685.32, 52690.84, 40750.09, 45536.20, 0.000, 0.000, 0.000, 14:51:36.875
233, 52550.25, 68931.68, -1761.43, 29081.14, 22678.71, 52679.26, 40744.39, 45531.35, 0.000, 0.000, 0.000, 14:51:36.876
234, 52554.70, 68949.09, -1750.05, 29089.48, 22680.22, 52683.04, 40736.61, 45529.47, 0.000, 0.000, 0.000, 14:51:36.876
235, 52548.26, 68966.06, -1753.70, 29091.15, 22678.79, 52685.61, 40720.14, 45518.41, 0.000, 0.908, 0.456, 14:51:36.876
236, 52583.06, 68972.70, -1768.20, 29094.73, 22675.49, 52693.66, 40721.39, 45509.85, 0.000, 0.000, 0.000, 14:51:36.877
237, 52578.75, 68971.20, -1759.40, 29098.82, 22699.13, 52700.89, 40758.38, 45529.96, 0.000, 0.000, 0.000, 14:51:36.877
238, 52556.97, 68961.08, -1759.28, 29096.09, 22695.65, 52697.52, 40760.66, 45547.67, 0.000, 0.000, 0.000, 14:51:36.877
239, 52553.66, 68953.88, -1751.08, 29098.86, 22693.01, 52696.92, 40755.92, 45544.00, 0.000, 0.000, 0.000, 14:51:36.878
240, 52585.36, 68946.97, -1755.82, 29094.64, 22689.88, 52693.74, 40750.27, 45526.28, 0.000, 0.000, 0.000, 14:51:36.878
241, 52610.66, 68960.34, -1766.23, 29098.51, 22676.89, 52697.90, 40739.81, 45515.04, 0.000, 0.000, 0.000, 14:51:36.878
242, 52558.29, 68966.30, -1754.75, 29101.84, 22691.31, 52701.59, 40759.32, 45538.23, 0.000, 0.000, 0.000, 14:51:36.878
243, 52552.93, 68976.72, -1747.95, 29106.78, 22701.37, 52706.84, 40768.98, 45555.63, 0.000, 0.000, 0.000, 14:51:36.878
244, 52603.58, 68973.34, -1741.63, 29103.04, 22702.13, 52700.23, 40760.28, 45544.49, 0.000, 0.000, 0.000, 14:51:36.879
245, 52561.13, 68969.44, -1748.85, 29097.70, 22689.17, 52704.11, 40743.32, 45524.76, -0.002, 0.918, 0.464, 14:51:36.879
246, 52575.84, 68981.80, -1754.63, 29100.49, 22686.53, 52711.87, 40741.11, 45516.55, 0.000, 0.000, 0.000, 14:51:36.879
247, 52563.68, 68979.18, -1742.70, 29107.16, 22712.93, 52713.52, 40767.19, 45547.85, 0.000, 0.000, 0.000, 14:51:36.879
248, 52520.43, 68953.30, -1743.30, 29103.71, 22703.72, 52703.67, 40763.23, 45548.70, 0.000, 0.000, 0.000, 14:51:36.879
249, 52526.80, 68955.42, -1736.73, 29102.84, 22697.59, 52695.98, 40752.41, 45535.93, 0.000, 0.000, 0.000, 14:51:36.880
250, 52562.09, 68966.51, -1740.62, 29098.01, 22694.80, 52692.13, 40738.29, 45516.53, 0.000, 0.000, 0.000, 14:51:36.880
251, 52589.59, 68979.29, -1751.19, 29096.52, 22685.61, 52688.51, 40729.46, 45499.43, 0.000, 0.000, 0.000, 14:51:36.880
252, 52583.64, 68969.97, -1742.52, 29097.37, 22701.19, 52700.14, 40752.62, 45534.19, 0.000, 0.000, 0.000, 14:51:36.906
253, 52570.25, 68979.07, -1736.46, 29100.03, 22705.44, 52707.18, 40757.46, 45552.70, 0.000, 0.000, 0.000, 14:51:36.908
254, 52569.74, 68985.39, -1734.00, 29100.72, 22704.37, 52710.22, 40748.26, 45545.23, 0.000, 0.000, 0.000, 14:51:36.909
255, 52607.73, 68996.34, -1742.92, 29099.27, 22702.17, 52710.53, 40743.50, 45535.96, -0.004, 0.918, 0.464, 14:51:36.910
0, 52593.96, 68991.67, -1757.79, 29095.80, 22688.43, 52711.98, 40737.30, 45522.93, 0.000, 0.000, 0.000, 14:51:36.911
1, 52568.24, 68957.66, -1750.39, 29094.64, 22693.66, 52710.26, 40753.18, 45533.03, 0.000, 0.000, 0.000, 14:51:36.911
2, 52543.54, 68947.13, -1744.53, 29100.90, 22697.35, 52713.41, 40762.03, 45536.00, 0.000, 0.000, 0.000, 14:51:36.911
3, 52561.15, 68956.27, -1737.65, 29101.66, 22700.23, 52715.61, 40760.84, 45533.70, 0.000, 0.000, 0.000, 14:51:36.912
4, 52585.52, 68971.73, -1747.10, 29094.73, 22696.54, 52711.20, 40748.75, 45529.23, 0.000, 0.000, 0.000, 14:51:36.912
5, 52586.93, 68981.46, -1760.96, 29097.39, 22686.71, 52713.17, 40734.96, 45518.34, 0.000, 0.000, 0.000, 14:51:36.912
6, 52583.95, 68970.69, -1757.18, 29093.90, 22703.69, 52712.65, 40753.33, 45532.80, 0.000, 0.000, 0.000, 14:51:36.912
7, 52548.75, 68955.35, -1756.89, 29087.75, 22708.25, 52712.32, 40762.16, 45537.43, 0.000, 0.000, 0.000, 14:51:36.912
8, 52582.59, 68970.44, -1747.33, 29088.22, 22712.39, 52715.61, 40769.31, 45537.30, 0.000, 0.916, 0.466, 14:51:36.913
9, 52599.40, 68970.35, -1750.23, 29087.04, 22711.36, 52716.74, 40761.69, 45534.50, 0.000, 0.000, 0.000, 14:51:36.913
10, 52584.36, 68978.02, -1757.67, 29093.10, 22702.71, 52714.73, 40751.39, 45540.18, 0.000, 0.000, 0.000, 14:51:36.913
11, 52566.25, 68992.63, -1748.60, 29092.52, 22714.54, 52715.27, 40769.87, 45561.41, 0.000, 0.000, 0.000, 14:51:36.913
12, 52550.54, 68954.75, -1743.68, 29092.54, 22714.85, 52715.27, 40776.46, 45564.77, 0.000, 0.000, 0.000, 14:51:36.913
13, 52575.86, 68931.39, -1737.71, 29091.82, 22715.74, 52709.39, 40766.68, 45554.78, 0.000, 0.000, 0.000, 14:51:36.914
14, 52583.04, 68952.65, -1738.38, 29091.08, 22715.83, 52710.24, 40760.64, 45541.05, 0.000, 0.000, 0.000, 14:51:36.914
15, 52538.18, 68965.68, -1746.81, 29091.64, 22705.26, 52712.92, 40752.53, 45531.30, 0.000, 0.000, 0.000, 14:51:36.914
16, 52547.18, 68954.41, -1739.73, 29088.16, 22719.01, 52720.43, 40773.05, 45552.72, 0.000, 0.000, 0.000, 14:51:36.914
17, 52556.06, 68945.48, -1742.59, 29078.70, 22714.02, 52715.67, 40773.67, 45550.15, 0.000, 0.000, 0.000, 14:51:36.915
18, 52553.89, 68963.27, -1735.28, 29078.90, 22714.36, 52702.80, 40768.66, 45539.02, 0.000, 0.910, 0.464, 14:51:36.916
19, 52575.84, 68982.22, -1741.45, 29080.45, 22715.79, 52702.73, 40762.00, 45529.29, 0.000, 0.000, 0.000, 14:51:36.917
20, 52591.21, 68995.27, -1753.27, 29083.13, 22713.30, 52705.37, 40758.88, 45531.06, 0.000, 0.000, 0.000, 14:51:36.917
21, 52573.63, 68980.74, -1754.63, 29079.13, 22715.72, 52701.54, 40775.05, 45545.05, 0.000, 0.000, 0.000, 14:51:36.918
22, 52558.96, 68949.01, -1750.19, 29087.04, 22721.80, 52705.01, 40784.38, 45540.43, 0.000, 0.000, 0.000, 14:51:36.920
23, 52556.75, 68937.85, -1739.90, 29092.31, 22725.04, 52709.39, 40782.23, 45551.82, 0.000, 0.000, 0.000, 14:51:36.920
24, 52589.34, 68942.45, -1748.98, 29091.22, 22706.67, 52707.49, 40764.02, 45545.99, 0.000, 0.000, 0.000, 14:51:36.921
25, 52641.55, 68968.63, -1761.09, 29094.35, 22692.65, 52707.80, 40750.16, 45528.07, 0.000, 0.000, 0.000, 14:51:36.921
26, 52568.35, 68967.96, -1752.35, 29097.01, 22705.93, 52713.37, 40772.15, 45551.29, 0.000, 0.000, 0.000, 14:51:36.922
27, 52532.10, 68954.03, -1755.04, 29090.24, 22698.26, 52706.55, 40765.29, 45552.14, 0.000, 0.000, 0.000, 14:51:36.922
28, 52523.74, 68954.39, -1744.44, 29093.90, 22705.30, 52704.81, 40766.34, 45546.73, -0.002, 0.912, 0.458, 14:51:36.922
29, 52541.73, 68953.32, -1750.34, 29093.48, 22699.27, 52701.75, 40756.17, 45530.66, 0.000, 0.000, 0.000, 14:51:36.923
30, 52565.85, 68965.50, -1758.05, 29096.92, 22686.64, 52705.21, 40750.89, 45519.84, 0.000, 0.000, 0.000, 14:51:36.923
31, 52566.63, 68950.52, -1744.31, 29096.45, 22706.35, 52708.34, 40776.60, 45542.93, 0.000, 0.000, 0.000, 14:51:36.923
32, 52547.68, 68939.75, -1743.17, 29093.32, 22707.23, 52707.20, 40779.26, 45543.13, 0.000, 0.000, 0.000, 14:51:36.924
33, 52554.02, 68956.88, -1736.04, 29096.25, 22705.37, 52709.84, 40769.98, 45534.46, 0.000, 0.000, 0.000, 14:51:36.924
34, 52607.87, 68980.37, -1742.25, 29090.26, 22700.41, 52701.50, 40748.86, 45523.86, 0.000, 0.000, 0.000, 14:51:36.924
35, 52636.59, 69003.05, -1748.20, 29095.55, 22693.79, 52703.94, 40742.89, 45508.62, 0.000, 0.000, 0.000, 14:51:36.925
36, 52584.49, 68969.21, -1736.75, 29093.01, 22706.09, 52703.31, 40762.07, 45526.28, 0.000, 0.000, 0.000, 14:51:36.925
37, 52562.09, 68959.13, -1727.52, 29096.14, 22707.65, 52710.35, 40765.29, 45545.32, 0.000, 0.000, 0.000, 14:51:36.926
38, 52566.85, 68970.58, -1727.57, 29093.14, 22706.44, 52707.02, 40756.15, 45532.91, -0.006, 0.918, 0.458, 14:51:36.926
39, 52559.66, 68988.99, -1734.74, 29092.09, 22705.75, 52704.34, 40758.07, 45528.56, 0.000, 0.000, 0.000, 14:51:36.927
40, 52591.35, 68981.75, -1730.74, 29104.59, 22708.79, 52715.43, 40765.51, 45543.60, 0.000, 0.000, 0.000, 14:51:36.927
41, 52567.81, 68940.38, -1723.23, 29104.23, 22719.01, 52714.89, 40786.46, 45558.80, 0.000, 0.000, 0.000, 14:51:36.928
42, 52535.09, 68935.99, -1726.38, 29103.11, 22710.80, 52713.17, 40781.63, 45557.64, 0.000, 0.000, 0.000, 14:51:36.928
43, 52561.45, 68945.56, -1723.43, 29102.22, 22707.34, 52706.86, 40778.43, 45555.47, 0.000, 0.000, 0.000, 14:51:36.929
44, 52585.11, 68959.45, -1738.45, 29090.21, 22698.22, 52699.00, 40759.57, 45534.10, 0.000, 0.000, 0.000, 14:51:36.929
45, 52554.52, 68974.59, -1750.57, 29098.30, 22690.89, 52709.79, 40751.01, 45527.28, 0.000, 0.000, 0.000, 14:51:36.929
46, 52552.95, 68957.95, -1745.36, 29102.57, 22703.98, 52711.02, 40770.09, 45541.86, 0.000, 0.000, 0.000, 14:51:36.930
47, 52563.41, 68956.52, -1744.31, 29106.40, 22703.87, 52710.24, 40775.37, 45546.44, 0.000, 0.000, 0.000, 14:51:36.930
48, 52560.33, 68959.71, -1745.43, 29101.84, 22696.92, 52704.74, 40762.74, 45545.99, -0.004, 0.918, 0.454, 14:51:36.930
49, 52600.67, 68979.13, -1749.83, 29099.94, 22693.75, 52706.62, 40753.04, 45533.43, 0.000, 0.000, 0.000, 14:51:36.930
50, 52608.88, 69000.30, -1759.40, 29096.47, 22688.72, 52709.26, 40742.51, 45515.21, 0.000, 0.000, 0.000, 14:51:36.930
51, 52611.47, 68999.12, -1750.48, 29097.46, 22705.71, 52729.20, 40767.57, 45553.95, 0.000, 0.000, 0.000, 14:51:36.931
52, 52546.69, 68957.45, -1752.13, 29089.14, 22704.25, 52715.71, 40774.54, 45552.92, 0.000, 0.000, 0.000, 14:51:36.931
53, 52541.98, 68954.05, -1741.58, 29093.39, 22706.38, 52702.98, 40772.78, 45547.58, 0.000, 0.000, 0.000, 14:51:36.931
54, 52538.64, 68970.80, -1744.06, 29090.88, 22702.13, 52699.93, 40753.46, 45536.49, 0.000, 0.000, 0.000, 14:51:36.931
55, 52552.86, 68983.63, -1757.20, 29087.69, 22686.88, 52698.97, 40732.54, 45519.24, 0.000, 0.000, 0.000, 14:51:36.931
56, 52551.77, 68962.44, -1748.24, 29087.20, 22699.07, 52705.70, 40757.98, 45547.67, 0.000, 0.000, 0.000, 14:51:36.931
57, 52543.79, 68954.70, -1742.77, 29087.26, 22700.41, 52702.80, 40767.39, 45547.58, 0.000, 0.000, 0.000, 14:51:36.932
58, 52581.56, 68966.26, -1734.85, 29090.59, 22700.05, 52705.21, 40770.56, 45548.99, 0.000, 0.920, 0.458, 14:51:36.932
59, 52583.55, 68954.33, -1739.32, 29088.43, 22693.90, 52702.82, 40755.70, 45527.26, 0.000, 0.000, 0.000, 14:51:36.932
60, 52570.79, 68966.64, -1754.37, 29087.53, 22683.31, 52703.09, 40734.89, 45510.21, 0.000, 0.000, 0.000, 14:51:36.932
61, 52577.52, 68962.69, -1747.71, 29092.27, 22698.55, 52706.82, 40758.83, 45537.83, 0.000, 0.000, 0.000, 14:51:36.933
62, 52582.97, 68943.64, -1746.99, 29092.16, 22696.03, 52709.73, 40773.31, 45545.03, 0.000, 0.000, 0.000, 14:51:36.933
63, 52577.00, 68952.24, -1743.55, 29088.18, 22697.44, 52707.16, 40769.80, 45529.14, 0.000, 0.000, 0.000, 14:51:36.933
64, 52612.99, 68970.58, -1751.39, 29085.52, 22689.88, 52710.80, 40753.13, 45530.34, 0.000, 0.000, 0.000, 14:51:36.933
65, 52601.23, 68988.61, -1758.57, 29098.19, 22681.66, 52716.05, 40738.82, 45537.79, 0.000, 0.000, 0.000, 14:51:36.933
66, 52549.71, 68971.42, -1746.99, 29105.86, 22696.94, 52716.83, 40757.15, 45542.28, 0.000, 0.000, 0.000, 14:51:36.933
67, 52561.54, 68962.30, -1744.71, 29105.97, 22697.55, 52711.76, 40770.81, 45546.02, 0.000, 0.000, 0.000, 14:51:36.934
68, 52577.05, 68957.07, -1739.86, 29105.97, 22701.28, 52709.23, 40765.07, 45545.01, 0.000, 0.918, 0.464, 14:51:36.934
69, 52532.66, 68951.35, -1744.49, 29103.40, 22693.75, 52706.33, 40751.88, 45533.54, 0.000, 0.000, 0.000, 14:51:36.934
70, 52561.58, 68974.33, -1763.82, 29097.30, 22679.11, 52703.60, 40733.06, 45518.84, 0.000, 0.000, 0.000, 14:51:36.934
71, 52548.08, 68979.47, -1748.17, 29106.42, 22701.77, 52717.21, 40759.03, 45556.39, 0.000, 0.000, 0.000, 14:51:36.934
72, 52516.16, 68943.28, -1741.54, 29103.78, 22703.63, 52713.75, 40765.47, 45558.17, 0.000, 0.000, 0.000, 14:51:36.935
73, 52540.21, 68927.01, -1738.05, 29097.23, 22699.38, 52707.76, 40755.75, 45546.84, 0.000, 0.000, 0.000, 14:51:36.935
74, 52557.42, 68926.19, -1751.15, 29079.02, 22683.44, 52692.92, 40730.11, 45513.25, 0.000, 0.000, 0.000, 14:51:36.935
75, 52589.88, 68958.73, -1755.60, 29083.33, 22679.85, 52701.72, 40729.19, 45513.54, 0.000, 0.000, 0.000, 14:51:36.936
76, 52576.17, 68978.06, -1739.50, 29090.30, 22701.77, 52708.86, 40759.66, 45544.88, 0.000, 0.000, 0.000, 14:51:36.936
77, 52572.35, 68985.64, -1738.16, 29088.20, 22701.48, 52706.39, 40763.55, 45549.84, -0.004, 0.912, 0.458, 14:51:36.936
78, 52572.89, 68956.38, -1731.52, 29090.44, 22701.39, 52708.36, 40755.19, 45543.42, 0.000, 0.000, 0.000, 14:51:36.936
79, 52548.26, 68950.39, -1741.04, 29088.80, 22693.01, 52706.89, 40735.63, 45536.52, 0.000, 0.000, 0.000, 14:51:36.936
80, 52568.57, 68969.39, -1753.52, 29091.29, 22686.66, 52711.13, 40736.28, 45525.94, 0.000, 0.000, 0.000, 14:51:36.937
81, 52571.37, 68971.31, -1746.16, 29090.24, 22704.54, 52715.69, 40762.96, 45544.61, 0.000, 0.000, 0.000, 14:51:36.937
82, 52573.00, 68947.33, -1743.39, 29088.47, 22706.67, 52711.20, 40767.88, 45554.02, 0.000, 0.000, 0.000, 14:51:36.939
83, 52609.72, 68946.50, -1735.32, 29089.88, 22702.93, 52705.81, 40769.16, 45552.23, 0.000, 0.000, 0.000, 14:51:36.939
84, 52550.43, 68957.27, -1739.23, 29088.51, 22698.11, 52706.51, 40759.72, 45546.06, 0.000, 0.000, 0.000, 14:51:36.939
85, 52529.23, 68959.22, -1750.77, 29092.20, 22690.30, 52710.24, 40749.91, 45535.60, 0.000, 0.000, 0.000, 14:51:36.939
86, 52526.78, 68953.38, -1746.03, 29092.13, 22708.05, 52715.00, 40765.31, 45550.86, 0.000, 0.000, 0.000, 14:51:36.939
87, 52526.24, 68951.13, -1745.78, 29090.77, 22702.26, 52710.62, 40765.22, 45551.27, 0.000, 0.910, 0.466, 14:51:36.939
88, 52538.62, 68968.88, -1741.96, 29092.49, 22699.18, 52701.72, 40766.21, 45541.63, 0.000, 0.000, 0.000, 14:51:36.939
89, 52571.99, 69004.93, -1747.82, 29091.24, 22694.91, 52708.45, 40753.00, 45534.44, 0.000, 0.000, 0.000, 14:51:36.940
90, 52587.71, 68986.06, -1753.45, 29097.01, 22691.24, 52715.98, 40742.67, 45532.91, 0.000, 0.000, 0.000, 14:51:37.349
91, 52572.15, 68953.74, -1739.01, 29100.36, 22711.25, 52720.05, 40772.00, 45556.56, 0.000, 0.000, 0.000, 14:51:37.349
92, 52546.04, 68926.70, -1742.23, 29094.66, 22701.59, 52710.98, 40771.91, 45564.45, 0.000, 0.000, 0.000, 14:51:37.349
93, 52550.22, 68924.46, -1735.64, 29092.00, 22700.83, 52706.17, 40763.90, 45555.34, 0.000, 0.000, 0.000, 14:51:37.350
94, 52574.56, 68947.84, -1739.66, 29085.50, 22697.06, 52701.93, 40756.04, 45540.31, 0.000, 0.000, 0.000, 14:51:37.350
95, 52568.26, 68961.27, -1743.46, 29092.69, 22694.98, 52716.66, 40749.13, 45531.20, 0.000, 0.000, 0.000, 14:51:37.350
96, 52551.54, 68980.61, -1734.38, 29092.11, 22708.68, 52715.52, 40765.98, 45551.87, 0.000, 0.000, 0.000, 14:51:37.350
97, 52533.77, 68967.67, -1728.73, 29093.61, 22707.54, 52708.43, 40765.89, 45558.64, 0.004, 0.908, 0.466, 14:51:37.350
98, 52524.50, 68969.30, -1722.02, 29098.13, 22708.23, 52710.38, 40763.48, 45555.16, 0.000, 0.000, 0.000, 14:51:37.351
99, 52536.39, 68966.93, -1730.76, 29095.47, 22700.83, 52706.51, 40749.75, 45546.73, 0.000, 0.000, 0.000, 14:51:37.351
100, 52565.00, 68971.58, -1747.68, 29093.39, 22685.10, 52706.37, 40731.89, 45532.71, 0.000, 0.000, 0.000, 14:51:37.351
101, 52558.45, 68977.17, -1739.95, 29095.22, 22699.67, 52708.07, 40762.27, 45545.21, 0.000, 0.000, 0.000, 14:51:37.351
102, 52545.95, 68967.52, -1738.21, 29092.89, 22705.71, 52703.27, 40776.22, 45550.20, 0.000, 0.000, 0.000, 14:51:37.351
103, 52586.66, 68970.44, -1735.77, 29090.88, 22709.97, 52699.06, 40770.72, 45551.00, 0.000, 0.000, 0.000, 14:51:37.352
104, 52598.82, 68992.14, -1742.50, 29088.92, 22706.60, 52702.59, 40761.04, 45550.75, 0.000, 0.000, 0.000, 14:51:37.352
105, 52597.92, 68987.77, -1759.35, 29083.51, 22685.54, 52701.28, 40744.37, 45531.20, 0.000, 0.000, 0.000, 14:51:37.352
106, 52644.19, 68969.93, -1750.79, 29085.79, 22696.59, 52709.26, 40764.26, 45558.69, 0.000, 0.000, 0.000, 14:51:37.352
107, 52543.32, 68945.79, -1748.09, 29085.90, 22696.45, 52712.96, 40766.18, 45561.70, -0.002, 0.908, 0.464, 14:51:37.352
108, 52489.85, 68963.65, -1739.68, 29091.96, 22699.43, 52718.53, 40764.57, 45554.51, 0.000, 0.000, 0.000, 14:51:37.353
109, 52516.92, 68967.53, -1748.60, 29092.40, 22688.16, 52704.34, 40743.92, 45538.37, 0.000, 0.000, 0.000, 14:51:37.354
110, 52539.09, 68967.40, -1763.84, 29092.87, 22674.73, 52698.75, 40727.13, 45521.49, 0.000, 0.000, 0.000, 14:51:37.355
111, 52536.77, 68952.83, -1758.99, 29084.27, 22682.57, 52693.88, 40739.38, 45529.34, 0.000, 0.000, 0.000, 14:51:37.355
112, 52527.80, 68957.19, -1759.75, 29077.47, 22679.55, 52682.64, 40739.79, 45523.73, 0.000, 0.000, 0.000, 14:51:37.356
113, 52569.60, 68974.55, -1750.92, 29084.60, 22682.17, 52689.30, 40741.20, 45533.36, 0.000, 0.000, 0.000, 14:51:37.356
114, 52582.72, 68975.47, -1751.97, 29084.94, 22690.37, 52693.68, 40746.45, 45529.59, 0.000, 0.000, 0.000, 14:51:37.357
115, 52592.27, 68982.71, -1760.58, 29085.32, 22680.89, 52698.75, 40733.71, 45520.20, 0.000, 0.000, 0.000, 14:51:37.357
116, 52562.83, 68929.27, -1754.97, 29080.71, 22686.84, 52695.82, 40746.07, 45540.74, 0.000, 0.000, 0.000, 14:51:37.361
117, 52517.61, 68920.02, -1744.60, 29083.98, 22692.83, 52699.51, 40755.75, 45553.48, -0.002, 0.904, 0.460, 14:51:37.362
118, 52519.80, 68931.75, -1735.52, 29093.57, 22700.47, 52710.64, 40754.87, 45553.64, 0.000, 0.000, 0.000, 14:51:37.362
119, 52534.15, 68928.17, -1743.88, 29091.51, 22694.26, 52708.61, 40746.98, 45536.80, 0.000, 0.000, 0.000, 14:51:37.362
120, 52549.29, 68940.55, -1760.78, 29087.73, 22674.59, 52707.22, 40736.68, 45525.65, 0.000, 0.000, 0.000, 14:51:37.362
121, 52534.27, 68945.98, -1752.69, 29089.74, 22694.15, 52709.93, 40757.18, 45547.78, 0.000, 0.000, 0.000, 14:51:37.363
122, 52539.23, 68946.70, -1748.22, 29092.02, 22696.47, 52710.30, 40757.00, 45543.24, 0.000, 0.000, 0.000, 14:51:37.363
123, 52547.63, 68949.07, -1748.33, 29087.91, 22690.08, 52703.71, 40752.21, 45527.46, 0.000, 0.000, 0.000, 14:51:37.363
124, 52557.13, 68948.91, -1753.45, 29088.80, 22691.45, 52703.00, 40753.62, 45530.21, 0.000, 0.000, 0.000, 14:51:37.363
125, 52550.71, 68959.84, -1765.30, 29092.98, 22680.43, 52707.78, 40730.82, 45525.16, 0.000, 0.000, 0.000, 14:51:37.363
126, 52555.45, 68957.05, -1758.23, 29092.05, 22692.18, 52708.12, 40748.70, 45547.73, 0.000, 0.000, 0.000, 14:51:37.364
127, 52577.18, 68956.41, -1754.37, 29088.36, 22697.28, 52711.51, 40764.30, 45564.59, 0.006, 0.908, 0.456, 14:51:37.364
128, 52550.54, 68965.32, -1747.88, 29091.64, 22701.50, 52711.80, 40767.55, 45554.95, 0.000, 0.000, 0.000, 14:51:37.364
129, 52546.36, 68956.59, -1752.35, 29093.86, 22695.47, 52708.52, 40754.14, 45540.80, 0.000, 0.000, 0.000, 14:51:37.364
130, 52548.68, 68955.24, -1764.54, 29095.98, 22681.23, 52705.59, 40737.57, 45536.40, 0.000, 0.000, 0.000, 14:51:37.364
131, 52584.69, 68932.27, -1755.55, 29097.23, 22695.00, 52705.03, 40756.75, 45551.54, 0.000, 0.000, 0.000, 14:51:37.364
132, 52559.97, 68933.98, -1748.24, 29102.02, 22700.54, 52715.22, 40766.45, 45560.36, 0.000, 0.000, 0.000, 14:51:37.365
133, 52544.97, 68937.83, -1740.37, 29102.22, 22699.71, 52719.07, 40757.98, 45553.66, 0.000, 0.000, 0.000, 14:51:37.365
134, 52555.61, 68949.41, -1742.03, 29094.75, 22689.39, 52705.08, 40742.73, 45533.63, 0.000, 0.000, 0.000, 14:51:37.365
135, 52539.83, 68957.86, -1749.54, 29091.44, 22679.29, 52702.26, 40728.66, 45520.49, 0.000, 0.000, 0.000, 14:51:37.365
136, 52546.04, 68962.41, -1744.20, 29090.68, 22694.69, 52703.33, 40752.68, 45538.08, 0.000, 0.000, 0.000, 14:51:37.365
137, 52538.40, 68965.41, -1743.86, 29091.04, 22697.99, 52706.60, 40754.58, 45551.40, 0.004, 0.908, 0.458, 14:51:37.365
138, 52577.14, 68971.70, -1734.09, 29099.82, 22705.44, 52719.18, 40754.74, 45559.89, 0.000, 0.000, 0.000, 14:51:37.365
139, 52585.81, 68975.13, -1738.70, 29098.68, 22690.95, 52719.65, 40742.09, 45539.11, 0.000, 0.000, 0.000, 14:51:37.366
140, 52540.70, 68961.34, -1752.00, 29101.32, 22671.31, 52708.05, 40727.29, 45520.46, 0.000, 0.000, 0.000, 14:51:37.366
141, 52534.20, 68943.20, -1751.53, 29100.67, 22683.80, 52701.19, 40738.64, 45533.88, 0.000, 0.000, 0.000, 14:51:37.367
142, 52530.53, 68942.10, -1748.62, 29101.28, 22688.99, 52708.77, 40753.40, 45548.92, 0.000, 0.000, 0.000, 14:51:37.367
143, 52528.88, 68943.82, -1739.44, 29101.99, 22691.47, 52715.61, 40751.30, 45554.24, 0.000, 0.000, 0.000, 14:51:37.367
144, 52554.40, 68955.04, -1742.81, 29100.56, 22687.02, 52710.33, 40740.39, 45539.78, 0.000, 0.000, 0.000, 14:51:37.368
145, 52579.57, 68957.86, -1760.54, 29095.04, 22675.64, 52708.27, 40723.18, 45524.89, 0.000, 0.000, 0.000, 14:51:37.369
146, 52581.32, 68952.13, -1753.85, 29097.37, 22693.23, 52714.20, 40753.60, 45548.56, 0.000, 0.000, 0.000, 14:51:37.369
147, 52553.51, 68943.13, -1752.51, 29099.38, 22694.78, 52712.92, 40761.36, 45557.05, 0.000, 0.924, 0.458, 14:51:37.370
148, 52548.48, 68950.97, -1743.01, 29104.67, 22696.65, 52712.83, 40757.40, 45554.26, 0.000, 0.000, 0.000, 14:51:37.370
149, 52579.64, 68958.15, -1750.05, 29098.53, 22691.07, 52710.51, 40736.68, 45531.91, 0.000, 0.000, 0.000, 14:51:37.370
150, 52594.61, 69001.82, -1757.94, 29100.54, 22689.12, 52713.64, 40728.97, 45504.13, 0.000, 0.000, 0.000, 14:51:37.370
151, 52595.13, 68979.16, -1739.17, 29112.95, 22715.50, 52727.52, 40767.84, 45551.76, 0.000, 0.000, 0.000, 14:51:37.371
152, 52581.16, 68933.41, -1732.22, 29115.07, 22704.03, 52724.97, 40777.00, 45579.81, 0.000, 0.000, 0.000, 14:51:37.371
153, 52586.79, 68936.76, -1727.25, 29113.30, 22696.59, 52721.53, 40763.21, 45565.32, 0.000, 0.000, 0.000, 14:51:37.371
154, 52578.07, 68964.20, -1733.76, 29111.38, 22688.07, 52720.68, 40747.50, 45549.70, 0.000, 0.000, 0.000, 14:51:37.372
155, 52528.09, 68989.95, -1746.36, 29107.87, 22675.75, 52718.93, 40737.50, 45539.84, 0.000, 0.000, 0.000, 14:51:37.372
156, 52543.50, 68975.65, -1732.64, 29108.77, 22694.75, 52724.93, 40763.25, 45568.01, 0.004, 0.912, 0.470, 14:51:37.372
157, 52518.66, 68928.91, -1728.80, 29103.80, 22696.41, 52721.84, 40765.51, 45566.78, 0.000, 0.000, 0.000, 14:51:37.373
158, 52532.54, 68935.75, -1720.77, 29106.69, 22700.52, 52725.84, 40764.93, 45564.61, 0.000, 0.000, 0.000, 14:51:37.373
159, 52544.86, 68956.11, -1734.09, 29096.58, 22693.21, 52720.30, 40742.91, 45545.84, 0.000, 0.000, 0.000, 14:51:37.373
160, 52567.75, 68968.09, -1751.15, 29095.58, 22683.33, 52716.97, 40729.93, 45527.66, 0.000, 0.000, 0.000, 14:51:37.373
161, 52597.65, 68975.13, -1743.97, 29101.59, 22702.67, 52724.52, 40767.37, 45558.17, 0.000, 0.000, 0.000, 14:51:37.374
162, 52585.88, 68961.99, -1742.18, 29097.68, 22708.81, 52719.38, 40768.57, 45562.49, 0.000, 0.000, 0.000, 14:51:37.374
163, 52573.52, 68959.47, -1733.82, 29098.60, 22711.34, 52721.59, 40770.34, 45562.75, 0.000, 0.000, 0.000, 14:51:37.374
164, 52571.28, 68947.10, -1743.32, 29093.32, 22695.58, 52717.06, 40755.45, 45548.52, 0.000, 0.000, 0.000, 14:51:37.374
165, 52562.11, 68952.65, -1757.96, 29092.00, 22684.52, 52715.05, 40739.34, 45542.53, 0.000, 0.000, 0.000, 14:51:37.374
166, 52587.46, 68957.72, -1753.52, 29087.96, 22703.49, 52716.27, 40758.98, 45559.85, -0.002, 0.904, 0.466, 14:51:37.375
167, 52539.47, 68957.25, -1752.62, 29086.08, 22706.27, 52716.45, 40769.67, 45564.32, 0.000, 0.000, 0.000, 14:51:37.375
168, 52498.81, 68946.77, -1750.28, 29084.40, 22703.36, 52715.05, 40761.71, 45558.66, 0.000, 0.000, 0.000, 14:51:37.375
169, 52513.54, 68942.50, -1755.44, 29078.48, 22698.78, 52709.17, 40748.86, 45546.55, 0.000, 0.000, 0.000, 14:51:37.376
170, 52537.04, 68940.18, -1765.03, 29078.90, 22691.47, 52711.16, 40748.75, 45539.18, 0.000, 0.000, 0.000, 14:51:37.376
171, 52543.00, 68945.48, -1757.03, 29082.55, 22704.30, 52715.78, 40767.43, 45557.75, 0.000, 0.000, 0.000, 14:51:37.376
172, 52549.75, 68958.44, -1754.19, 29080.98, 22702.82, 52711.07, 40771.30, 45552.27, 0.000, 0.000, 0.000, 14:51:37.376
173, 52554.83, 68950.75, -1744.53, 29084.71, 22706.71, 52710.29, 40772.11, 45551.96, 0.000, 0.000, 0.000, 14:51:37.377
174, 52562.41, 68933.38, -1746.12, 29083.26, 22706.11, 52712.65, 40759.50, 45546.21, 0.000, 0.000, 0.000, 14:51:37.377
175, 52572.84, 68940.49, -1760.71, 29077.83, 22683.73, 52711.85, 40734.45, 45534.05, 0.000, 0.000, 0.000, 14:51:37.378
176, 52595.53, 68956.98, -1751.97, 29079.10, 22692.61, 52711.76, 40750.94, 45551.76, 0.000, 0.904, 0.468, 14:51:37.378
177, 52592.04, 68956.80, -1751.28, 29075.69, 22694.87, 52710.98, 40752.59, 45549.07, 0.000, 0.000, 0.000, 14:51:37.379
178, 52565.80, 68954.17, -1745.31, 29077.47, 22693.86, 52710.39, 40746.29, 45539.24, 0.000, 0.000, 0.000, 14:51:37.379
179, 52556.82, 68963.91, -1749.47, 29078.57, 22685.48, 52705.88, 40733.80, 45530.75, 0.000, 0.000, 0.000, 14:51:37.379
180, 52540.70, 68962.08, -1764.04, 29076.02, 22669.34, 52700.25, 40708.89, 45504.08, 0.000, 0.000, 0.000, 14:51:37.379
181, 52560.24, 68942.88, -1760.92, 29075.73, 22681.52, 52701.14, 40723.22, 45510.05, 0.000, 0.000, 0.000, 14:51:37.379
182, 52571.05, 68953.74, -1759.13, 29076.96, 22688.54, 52701.14, 40740.75, 45530.59, 0.000, 0.000, 0.000, 14:51:37.379
183, 52551.36, 68968.72, -1750.30, 29082.21, 22691.11, 52703.60, 40742.02, 45542.35, 0.000, 0.000, 0.000, 14:51:37.380
184, 52564.06, 68975.27, -1754.19, 29078.75, 22685.75, 52701.93, 40730.42, 45527.02, 0.000, 0.000, 0.000, 14:51:37.380
185, 52543.81, 68977.23, -1765.21, 29080.85, 22681.19, 52702.73, 40727.98, 45518.54, 0.000, 0.000, 0.000, 14:51:37.380
186, 52554.14, 68936.38, -1749.78, 29089.07, 22697.48, 52712.63, 40751.97, 45555.51, 0.002, 0.910, 0.462, 14:51:37.380
187, 52580.87, 68926.36, -1744.80, 29087.53, 22694.73, 52712.43, 40755.10, 45558.82, 0.000, 0.000, 0.000, 14:51:37.380
188, 52537.77, 68946.01, -1735.99, 29089.30, 22696.99, 52712.79, 40754.74, 45552.47, 0.000, 0.000, 0.000, 14:51:37.381
189, 52521.19, 68975.29, -1741.85, 29080.96, 22693.75, 52702.30, 40737.86, 45533.95, 0.000, 0.000, 0.000, 14:51:37.381
190, 52550.71, 68986.38, -1756.65, 29080.27, 22681.30, 52700.11, 40723.94, 45516.84, 0.000, 0.000, 0.000, 14:51:37.381
191, 52554.20, 68958.48, -1744.42, 29086.08, 22700.34, 52708.77, 40753.15, 45537.86, 0.000, 0.000, 0.000, 14:51:37.381
192, 52541.95, 68942.75, -1743.79, 29078.43, 22700.63, 52708.79, 40765.98, 45562.09, 0.000, 0.000, 0.000, 14:51:37.381
193, 52559.21, 68948.96, -1738.90, 29076.20, 22696.88, 52706.82, 40761.98, 45559.89, 0.000, 0.000, 0.000, 14:51:37.381
194, 52583.17, 68958.70, -1743.99, 29071.59, 22691.71, 52703.82, 40747.32, 45545.01, 0.000, 0.000, 0.000, 14:51:37.382
195, 52598.26, 68983.72, -1759.17, 29067.32, 22676.36, 52702.28, 40725.39, 45527.28, 0.000, 0.000, 0.000, 14:51:37.382
196, 52591.21, 68956.25, -1748.09, 29068.51, 22687.82, 52699.45, 40743.05, 45540.40, 0.000, 0.904, 0.462, 14:51:37.382
197, 52557.60, 68925.65, -1747.95, 29060.89, 22685.61, 52690.91, 40745.91, 45538.28, 0.000, 0.000, 0.000, 14:51:37.382
198, 52525.43, 68937.67, -1744.71, 29058.29, 22679.73, 52689.12, 40738.42, 45535.04, 0.000, 0.000, 0.000, 14:51:37.382
199, 52512.25, 68965.84, -1752.29, 29056.87, 22671.66, 52687.62, 40724.00, 45522.75, 0.000, 0.000, 0.000, 14:51:37.383
200, 52547.36, 68984.43, -1764.65, 29059.64, 22664.45, 52690.73, 40714.42, 45508.78, 0.000, 0.000, 0.000, 14:51:37.383
201, 52594.17, 68997.02, -1765.79, 29058.07, 22672.36, 52686.70, 40726.57, 45515.77, 0.000, 0.000, 0.000, 14:51:37.383
202, 52569.45, 68942.37, -1763.66, 29056.78, 22671.82, 52687.26, 40734.80, 45528.11, 0.000, 0.000, 0.000, 14:51:37.383
203, 52543.50, 68939.26, -1747.91, 29064.42, 22678.64, 52694.23, 40734.62, 45543.13, 0.000, 0.000, 0.000, 14:51:37.383
204, 52562.79, 68957.61, -1759.80, 29054.79, 22670.12, 52680.31, 40713.32, 45526.28, 0.000, 0.000, 0.000, 14:51:37.383
205, 52561.80, 68965.77, -1768.67, 29064.40, 22665.61, 52688.83, 40716.05, 45511.46, 0.000, 0.000, 0.000, 14:51:37.384
206, 52542.98, 68953.45, -1756.76, 29071.77, 22689.54, 52695.38, 40748.44, 45525.00, 0.002, 0.908, 0.464, 14:51:37.384
207, 52529.82, 68929.63, -1755.86, 29065.65, 22689.46, 52685.03, 40747.05, 45526.90, 0.000, 0.000, 0.000, 14:51:37.384
208, 52542.38, 68940.34, -1750.05, 29068.46, 22686.46, 52680.96, 40736.30, 45535.69, 0.000, 0.000, 0.000, 14:51:37.384
209, 52551.03, 68969.37, -1749.07, 29077.12, 22690.39, 52686.28, 40736.90, 45527.84, 0.000, 0.000, 0.000, 14:51:37.385
210, 52571.23, 68975.54, -1759.28, 29079.19, 22680.25, 52691.78, 40719.02, 45513.58, 0.000, 0.000, 0.000, 14:51:37.834
211, 52566.43, 68954.73, -1758.57, 29075.24, 22686.26, 52692.02, 40727.96, 45521.83, 0.000, 0.000, 0.000, 14:51:37.834
212, 52557.24, 68942.55, -1754.79, 29071.28, 22683.49, 52684.56, 40733.77, 45517.70, 0.000, 0.000, 0.000, 14:51:37.834
213, 52615.96, 68976.34, -1742.85, 29073.47, 22685.41, 52689.95, 40730.38, 45520.31, 0.000, 0.000, 0.000, 14:51:37.835
214, 52616.52, 69005.27, -1739.44, 29077.25, 22691.31, 52697.57, 40725.50, 45525.38, 0.000, 0.000, 0.000, 14:51:37.835
215, 52566.23, 68980.37, -1739.90, 29081.52, 22684.43, 52704.70, 40721.61, 45521.54, 0.000, 0.000, 0.000, 14:51:37.835
216, 52531.58, 68950.81, -1739.10, 29071.30, 22678.10, 52691.91, 40733.44, 45531.13, 0.012, 0.910, 0.458, 14:51:37.835
217, 52528.30, 68937.34, -1736.89, 29071.19, 22680.78, 52686.05, 40740.23, 45530.70, 0.000, 0.000, 0.000, 14:51:37.836
218, 52507.29, 68939.02, -1732.55, 29071.24, 22677.88, 52681.45, 40729.64, 45518.03, 0.000, 0.000, 0.000, 14:51:37.841
219, 52530.31, 68960.85, -1742.30, 29067.73, 22672.02, 52677.65, 40716.05, 45502.65, 0.000, 0.000, 0.000, 14:51:37.841
220, 52554.07, 68957.43, -1757.76, 29065.36, 22665.18, 52677.32, 40710.01, 45494.09, 0.000, 0.000, 0.000, 14:51:37.842
221, 52570.34, 68947.75, -1756.49, 29061.31, 22681.07, 52674.88, 40729.14, 45508.17, 0.000, 0.000, 0.000, 14:51:37.843
222, 52548.57, 68956.78, -1752.73, 29059.95, 22684.36, 52676.06, 40738.51, 45525.63, 0.000, 0.000, 0.000, 14:51:37.843
223, 52545.80, 68963.55, -1746.21, 29060.29, 22685.63, 52678.79, 40735.85, 45523.39, 0.000, 0.000, 0.000, 14:51:37.843
224, 52570.25, 68969.50, -1752.82, 29052.93, 22681.48, 52670.18, 40718.57, 45500.24, 0.000, 0.000, 0.000, 14:51:37.844
225, 52603.58, 68981.23, -1756.56, 29060.93, 22676.58, 52673.52, 40709.30, 45498.32, 0.006, 0.904, 0.460, 14:51:37.845
226, 52619.20, 68971.58, -1749.92, 29060.60, 22690.66, 52687.20, 40740.72, 45526.55, 0.000, 0.000, 0.000, 14:51:37.845
227, 52619.43, 68977.70, -1747.17, 29060.91, 22695.02, 52690.59, 40747.12, 45534.37, 0.000, 0.000, 0.000, 14:51:37.845
228, 52594.21, 68978.73, -1732.66, 29072.18, 22699.49, 52687.55, 40746.31, 45538.73, 0.000, 0.000, 0.000, 14:51:37.845
229, 52541.24, 68968.00, -1736.95, 29072.94, 22690.95, 52688.65, 40737.21, 45540.14, 0.000, 0.000, 0.000, 14:51:37.845
230, 52513.25, 68958.59, -1749.61, 29073.72, 22684.38, 52689.88, 40736.52, 45527.11, 0.000, 0.000, 0.000, 14:51:37.846
231, 52494.48, 68941.56, -1741.54, 29076.96, 22697.06, 52696.20, 40753.89, 45549.52, 0.000, 0.000, 0.000, 14:51:37.846
232, 52506.23, 68922.18, -1739.70, 29072.24, 22699.36, 52695.20, 40760.86, 45562.13, 0.000, 0.000, 0.000, 14:51:37.846
233, 52507.02, 68925.80, -1733.33, 29076.87, 22704.48, 52698.57, 40763.72, 45561.10, 0.000, 0.000, 0.000, 14:51:37.847
234, 52536.50, 68944.09, -1743.46, 29070.03, 22698.71, 52690.50, 40749.75, 45536.67, 0.000, 0.000, 0.000, 14:51:37.847
235, 52555.66, 68957.21, -1752.91, 29068.40, 22689.95, 52692.80, 40735.34, 45523.26, 0.006, 0.902, 0.466, 14:51:37.848
236, 52553.40, 68949.16, -1745.63, 29066.36, 22702.93, 52699.64, 40754.49, 45559.43, 0.000, 0.000, 0.000, 14:51:37.848
237, 52542.11, 68950.46, -1742.21, 29067.24, 22702.13, 52696.34, 40758.76, 45564.90, 0.000, 0.000, 0.000, 14:51:37.848
238, 52537.95, 68944.42, -1729.51, 29074.75, 22704.72, 52703.36, 40756.41, 45558.84, 0.000, 0.000, 0.000, 14:51:37.848
239, 52533.66, 68938.95, -1737.42, 29067.64, 22694.26, 52697.92, 40742.09, 45543.82, 0.000, 0.000, 0.000, 14:51:37.849
240, 52574.79, 68955.38, -1751.75, 29069.52, 22679.04, 52699.53, 40728.57, 45532.29, 0.000, 0.000, 0.000, 14:51:37.849
241, 52571.66, 68959.66, -1744.04, 29074.03, 22700.52, 52703.15, 40754.63, 45551.82, 0.000, 0.000, 0.000, 14:51:37.849
242, 52551.03, 68932.48, -1747.50, 29066.50, 22702.26, 52700.16, 40758.54, 45557.35, 0.000, 0.000, 0.000, 14:51:37.850
243, 52593.72, 68965.88, -1744.08, 29066.54, 22692.94, 52699.45, 40755.10, 45553.55, 0.000, 0.000, 0.000, 14:51:37.850
244, 52561.27, 68977.44, -1746.99, 29066.28, 22685.25, 52697.86, 40742.27, 45537.66, 0.000, 0.000, 0.000, 14:51:37.850
245, 52520.47, 68936.91, -1752.09, 29075.28, 22683.69, 52708.27, 40734.91, 45526.57, 0.006, 0.904, 0.468, 14:51:37.851
246, 52530.38, 68920.44, -1749.34, 29076.67, 22691.91, 52714.24, 40746.78, 45546.84, 0.000, 0.000, 0.000, 14:51:37.851
247, 52544.14, 68916.20, -1752.91, 29069.87, 22684.70, 52704.99, 40744.86, 45550.55, 0.000, 0.000, 0.000, 14:51:37.851
248, 52544.43, 68932.30, -1741.29, 29074.46, 22690.62, 52708.29, 40755.57, 45547.55, 0.000, 0.000, 0.000, 14:51:37.851
249, 52540.43, 68941.70, -1748.11, 29067.84, 22685.54, 52699.76, 40751.66, 45539.51, 0.000, 0.000, 0.000, 14:51:37.855
250, 52532.88, 68947.46, -1758.68, 29073.40, 22674.17, 52701.30, 40732.39, 45538.59, 0.000, 0.000, 0.000, 14:51:37.855
251, 52526.51, 68942.97, -1751.17, 29075.53, 22689.34, 52701.63, 40749.00, 45550.57, 0.000, 0.000, 0.000, 14:51:37.855
252, 52507.04, 68940.24, -1743.79, 29079.84, 22697.66, 52702.48, 40763.50, 45559.16, 0.000, 0.000, 0.000, 14:51:37.856
253, 52523.42, 68949.30, -1737.04, 29082.77, 22696.27, 52703.98, 40762.85, 45562.91, 0.000, 0.000, 0.000, 14:51:37.856
254, 52588.38, 68968.20, -1742.25, 29079.28, 22686.10, 52696.45, 40745.24, 45542.59, 0.000, 0.000, 0.000, 14:51:37.856
255, 52609.70, 68990.91, -1752.02, 29074.95, 22674.48, 52693.41, 40726.71, 45521.70, 0.002, 0.900, 0.462, 14:51:37.856
0, 52560.89, 68980.03, -1746.34, 29072.22, 22686.17, 52695.60, 40745.17, 45541.66, 0.000, 0.000, 0.000, 14:51:37.856
1, 52551.05, 68942.45, -1738.00, 29072.06, 22687.71, 52691.93, 40752.30, 45544.63, 0.000, 0.000, 0.000, 14:51:37.856
2, 52521.48, 68947.33, -1727.92, 29074.32, 22689.57, 52693.77, 40754.38, 45552.77, 0.000, 0.000, 0.000, 14:51:37.856
3, 52495.73, 68943.73, -1734.09, 29069.96, 22687.29, 52686.95, 40741.13, 45551.22, 0.000, 0.000, 0.000, 14:51:37.857
4, 52524.41, 68953.41, -1749.43, 29070.59, 22679.06, 52689.12, 40727.43, 45534.28, 0.000, 0.000, 0.000, 14:51:37.857
5, 52533.26, 68951.87, -1742.34, 29077.05, 22695.69, 52697.05, 40752.75, 45554.11, 0.000, 0.000, 0.000, 14:51:37.857
6, 52533.84, 68957.48, -1744.91, 29067.32, 22695.80, 52692.09, 40754.96, 45555.71, 0.000, 0.000, 0.000, 14:51:37.857
7, 52544.50, 68943.02, -1740.78, 29067.04, 22694.22, 52694.70, 40748.23, 45551.85, 0.000, 0.000, 0.000, 14:51:37.857
8, 52567.75, 68946.77, -1753.47, 29056.95, 22675.69, 52679.55, 40723.18, 45526.39, 0.000, 0.000, 0.000, 14:51:37.858
9, 52611.42, 68959.84, -1774.44, 29043.12, 22651.84, 52662.25, 40692.02, 45493.69, 0.000, 0.900, 0.462, 14:51:37.858
10, 52554.85, 68960.29, -1762.41, 29053.94, 22670.21, 52668.17, 40719.25, 45512.11, 0.000, 0.000, 0.000, 14:51:37.858
11, 52505.07, 68936.89, -1753.05, 29064.96, 22684.67, 52678.32, 40744.64, 45535.40, 0.000, 0.000, 0.000, 14:51:37.858
12, 52513.93, 68935.66, -1743.30, 29074.28, 22690.42, 52691.00, 40750.71, 45548.59, 0.000, 0.000, 0.000, 14:51:37.858
13, 52542.63, 68956.29, -1754.48, 29067.97, 22679.96, 52691.91, 40739.03, 45526.72, 0.000, 0.000, 0.000, 14:51:37.859
14, 52544.19, 68976.56, -1766.28, 29073.00, 22669.79, 52687.82, 40726.55, 45520.42, 0.000, 0.000, 0.000, 14:51:37.859
15, 52558.20, 68957.48, -1760.31, 29075.21, 22684.14, 52687.24, 40747.18, 45540.27, 0.000, 0.000, 0.000, 14:51:37.859
16, 52579.04, 68928.11, -1756.04, 29073.54, 22685.75, 52684.91, 40754.47, 45539.75, 0.000, 0.000, 0.000, 14:51:37.859
17, 52544.68, 68947.84, -1750.86, 29073.61, 22680.69, 52685.61, 40743.68, 45534.26, 0.000, 0.000, 0.000, 14:51:37.859
18, 52512.88, 68968.54, -1754.28, 29072.98, 22679.11, 52682.79, 40733.19, 45529.90, 0.000, 0.000, 0.000, 14:51:37.859
19, 52508.11, 68969.61, -1768.60, 29067.75, 22668.49, 52677.05, 40723.60, 45507.77, -0.004, 0.896, 0.472, 14:51:37.860
20, 52519.85, 68937.27, -1756.56, 29069.63, 22684.88, 52685.77, 40744.90, 45543.31, 0.000, 0.000, 0.000, 14:51:37.860
21, 52529.86, 68920.95, -1742.34, 29070.25, 22697.28, 52690.41, 40761.76, 45566.98, 0.000, 0.000, 0.000, 14:51:37.860
22, 52530.44, 68927.19, -1739.46, 29066.45, 22694.46, 52682.25, 40756.59, 45550.57, 0.000, 0.000, 0.000, 14:51:37.860
23, 52535.23, 68945.49, -1751.01, 29061.22, 22683.29, 52676.62, 40740.95, 45533.52, 0.000, 0.000, 0.000, 14:51:37.860
24, 52541.39, 68968.85, -1766.30, 29062.23, 22672.00, 52679.80, 40725.77, 45521.65, 0.000, 0.000, 0.000, 14:51:37.860
25, 52548.91, 68949.05, -1758.77, 29070.10, 22688.21, 52689.00, 40748.28, 45547.89, 0.000, 0.000, 0.000, 14:51:37.861
26, 52544.93, 68941.02, -1753.25, 29070.70, 22688.88, 52689.54, 40756.73, 45549.21, 0.000, 0.000, 0.000, 14:51:37.861
27, 52547.03, 68953.81, -1755.37, 29063.06, 22680.92, 52680.15, 40743.36, 45532.13, 0.000, 0.000, 0.000, 14:51:37.861
28, 52590.23, 68958.68, -1769.68, 29055.90, 22669.54, 52671.95, 40720.81, 45526.43, 0.000, 0.000, 0.000, 14:51:37.861
29, 52534.51, 68963.31, -1775.51, 29065.22, 22667.80, 52684.91, 40711.04, 45524.00, 0.004, 0.896, 0.468, 14:51:37.862
30, 52506.86, 68953.95, -1762.01, 29072.98, 22692.09, 52695.15, 40737.08, 45545.37, 0.000, 0.000, 0.000, 14:51:37.862
31, 52496.71, 68935.30, -1762.21, 29064.49, 22686.57, 52686.03, 40744.66, 45540.65, 0.000, 0.000, 0.000, 14:51:37.862
32, 52531.61, 68945.67, -1761.34, 29062.47, 22675.69, 52680.18, 40737.04, 45529.81, 0.000, 0.000, 0.000, 14:51:37.862
33, 52570.72, 68954.57, -1774.19, 29054.32, 22664.53, 52672.13, 40717.88, 45508.91, 0.000, 0.000, 0.000, 14:51:37.863
34, 52555.05, 68964.38, -1783.83, 29061.58, 22656.17, 52678.32, 40706.44, 45494.36, 0.000, 0.000, 0.000, 14:51:37.863
35, 52530.38, 68967.60, -1771.06, 29069.20, 22674.30, 52685.92, 40724.70, 45516.82, 0.000, 0.000, 0.000, 14:51:37.863
36, 52552.55, 68958.19, -1762.88, 29068.98, 22677.52, 52684.85, 40734.73, 45538.08, 0.000, 0.000, 0.000, 14:51:37.863
37, 52526.35, 68960.63, -1751.08, 29075.35, 22675.42, 52682.68, 40730.15, 45532.49, 0.000, 0.000, 0.000, 14:51:37.864
38, 52529.41, 68985.13, -1750.95, 29073.99, 22672.51, 52676.09, 40715.78, 45512.98, 0.000, 0.912, 0.464, 14:51:37.864
39, 52545.04, 68977.86, -1763.66, 29069.29, 22664.87, 52668.38, 40704.05, 45482.63, 0.000, 0.000, 0.000, 14:51:37.864
40, 52560.08, 68971.27, -1757.83, 29072.89, 22678.88, 52678.99, 40723.60, 45513.56, 0.000, 0.000, 0.000, 14:51:37.865
41, 52555.68, 68966.48, -1748.55, 29076.80, 22688.43, 52687.78, 40738.94, 45551.82, 0.000, 0.000, 0.000, 14:51:37.865
42, 52558.32, 68983.20, -1741.18, 29075.01, 22684.63, 52687.48, 40734.93, 45548.67, 0.000, 0.000, 0.000, 14:51:37.865
43, 52542.85, 68981.37, -1746.68, 29068.76, 22675.71, 52683.69, 40720.47, 45530.28, 0.000, 0.000, 0.000, 14:51:37.866
44, 52543.09, 68970.77, -1751.35, 29072.04, 22674.26, 52682.48, 40714.75, 45518.75, 0.000, 0.000, 0.000, 14:51:37.866
45, 52529.04, 68961.73, -1744.24, 29074.16, 22689.32, 52684.85, 40735.16, 45541.21, 0.000, 0.000, 0.000, 14:51:37.866
46, 52513.79, 68957.16, -1743.03, 29068.82, 22694.35, 52681.63, 40742.22, 45549.77, 0.000, 0.000, 0.000, 14:51:37.866
47, 52546.09, 68977.66, -1736.37, 29072.38, 22695.16, 52689.07, 40743.05, 45554.44, 0.000, 0.000, 0.000, 14:51:37.867
48, 52558.98, 68990.83, -1744.29, 29067.32, 22690.33, 52687.06, 40732.39, 45544.23, -0.006, 0.918, 0.468, 14:51:37.867
49, 52578.99, 68988.12, -1752.13, 29069.13, 22681.07, 52690.28, 40721.34, 45533.54, 0.000, 0.000, 0.000, 14:51:37.867
50, 52585.90, 68994.63, -1747.08, 29070.05, 22693.21, 52695.40, 40737.37, 45549.01, 0.000, 0.000, 0.000, 14:51:37.867
51, 52593.63, 68974.44, -1744.31, 29070.68, 22699.54, 52694.26, 40750.58, 45553.50, 0.000, 0.000, 0.000, 14:51:37.868
52, 52560.39, 68976.03, -1740.51, 29072.94, 22691.98, 52693.32, 40750.16, 45546.21, 0.000, 0.000, 0.000, 14:51:37.868
53, 52540.55, 68976.43, -1741.04, 29078.52, 22688.67, 52698.91, 40747.14, 45533.88, 0.000, 0.000, 0.000, 14:51:37.868
54, 52517.81, 68983.85, -1753.07, 29081.16, 22674.32, 52699.91, 40729.41, 45534.44, 0.000, 0.000, 0.000, 14:51:37.872
55, 52544.64, 68980.86, -1745.72, 29089.70, 22692.96, 52709.77, 40748.59, 45561.35, 0.000, 0.000, 0.000, 14:51:37.873
56, 52558.40, 68957.59, -1743.73, 29086.88, 22697.95, 52709.59, 40764.82, 45573.04, 0.000, 0.000, 0.000, 14:51:37.878
57, 52526.55, 68954.91, -1737.16, 29084.74, 22691.22, 52708.23, 40756.91, 45572.21, 0.000, 0.000, 0.000, 14:51:37.878
58, 52541.68, 68957.07, -1744.13, 29073.34, 22685.88, 52698.55, 40741.62, 45550.20, 0.000, 0.906, 0.466, 14:51:37.878
59, 52567.03, 68996.99, -1756.24, 29074.05, 22682.42, 52718.44, 40732.79, 45548.34, 0.000, 0.000, 0.000, 14:51:37.878
60, 52587.42, 69002.13, -1749.81, 29077.90, 22703.02, 52715.27, 40752.91, 45562.66, 0.000, 0.000, 0.000, 14:51:37.878
61, 52564.91, 68977.33, -1746.03, 29073.31, 22695.58, 52700.29, 40755.03, 45561.46, 0.000, 0.000, 0.000, 14:51:37.879
62, 52564.21, 68980.32, -1734.63, 29073.54, 22693.41, 52707.22, 40759.43, 45569.64, 0.000, 0.000, 0.000, 14:51:37.879
63, 52546.74, 68976.09, -1739.28, 29071.19, 22693.55, 52709.32, 40757.96, 45566.91, 0.000, 0.000, 0.000, 14:51:37.879
64, 52552.39, 68981.10, -1759.89, 29063.37, 22677.97, 52698.66, 40737.66, 45539.58, 0.000, 0.000, 0.000, 14:51:37.879
65, 52545.13, 68961.14, -1752.53, 29067.71, 22694.91, 52708.21, 40754.00, 45567.34, 0.000, 0.000, 0.000, 14:51:37.879
66, 52508.34, 68950.39, -1748.04, 29064.60, 22697.62, 52703.51, 40763.68, 45572.25, 0.000, 0.000, 0.000, 14:51:37.879
67, 52520.99, 68964.16, -1740.84, 29068.29, 22698.38, 52705.88, 40763.05, 45567.49, 0.000, 0.000, 0.000, 14:51:37.879
68, 52553.93, 68981.91, -1748.29, 29064.91, 22695.42, 52703.78, 40745.84, 45550.02, -0.002, 0.906, 0.464, 14:51:37.879
69, 52575.79, 68979.80, -1761.25, 29062.09, 22686.77, 52700.02, 40726.46, 45528.58, 0.000, 0.000, 0.000, 14:51:37.879
70, 52577.76, 68986.53, -1762.77, 29055.39, 22692.38, 52690.82, 40729.86, 45532.38, 0.000, 0.000, 0.000, 14:51:37.879
71, 52594.84, 68980.59, -1754.21, 29056.95, 22692.09, 52688.11, 40731.31, 45534.59, 0.000, 0.000, 0.000, 14:51:37.879
72, 52548.10, 68966.04, -1743.68, 29054.50, 22694.20, 52686.37, 40733.68, 45533.56, 0.000, 0.000, 0.000, 14:51:37.879
73, 52541.59, 68966.75, -1746.83, 29053.04, 22696.32, 52688.40, 40741.06, 45528.16, 0.000, 0.000, 0.000, 14:51:37.879
74, 52555.79, 68983.09, -1757.74, 29053.82, 22688.23, 52690.97, 40723.65, 45509.40, 0.000, 0.000, 0.000, 14:51:38.310
75, 52583.89, 68991.52, -1750.45, 29063.55, 22699.11, 52694.53, 40736.70, 45523.10, 0.000, 0.000, 0.000, 14:51:38.310
76, 52562.20, 68976.92, -1743.06, 29069.98, 22703.18, 52692.20, 40754.80, 45543.00, 0.000, 0.000, 0.000, 14:51:38.311
77, 52561.76, 68949.72, -1733.47, 29076.85, 22701.62, 52699.20, 40757.11, 45552.68, 0.000, 0.000, 0.000, 14:51:38.311
78, 52568.24, 68960.56, -1743.44, 29069.02, 22693.75, 52691.35, 40740.16, 45540.54, -0.004, 0.906, 0.468, 14:51:38.311
79, 52529.35, 68980.63, -1747.93, 29072.04, 22689.57, 52699.69, 40733.17, 45529.56, 0.000, 0.000, 0.000, 14:51:38.311
80, 52495.48, 68947.20, -1743.03, 29071.95, 22700.39, 52698.62, 40749.04, 45559.40, 0.000, 0.000, 0.000, 14:51:38.311
81, 52503.82, 68953.25, -1739.14, 29068.09, 22701.30, 52696.00, 40751.01, 45565.21, 0.000, 0.000, 0.000, 14:51:38.311
82, 52524.50, 68949.45, -1732.86, 29066.41, 22701.28, 52692.52, 40754.71, 45553.93, 0.000, 0.000, 0.000, 14:51:38.312
83, 52555.18, 68956.23, -1738.16, 29062.50, 22700.79, 52688.13, 40753.73, 45538.32, 0.000, 0.000, 0.000, 14:51:38.312
84, 52587.75, 68977.91, -1750.14, 29059.41, 22689.32, 52683.57, 40732.95, 45521.25, 0.000, 0.000, 0.000, 14:51:38.312
85, 52536.79, 68970.84, -1747.44, 29057.96, 22701.12, 52691.84, 40746.85, 45542.88, 0.000, 0.000, 0.000, 14:51:38.312
86, 52514.17, 68961.37, -1741.80, 29056.69, 22702.29, 52692.27, 40757.27, 45559.96, 0.000, 0.000, 0.000, 14:51:38.312
87, 52538.20, 68933.70, -1736.66, 29060.51, 22700.19, 52692.63, 40762.65, 45565.53, 0.000, 0.000, 0.000, 14:51:38.313
88, 52561.55, 68954.75, -1742.12, 29059.68, 22699.94, 52692.92, 40749.44, 45552.50, -0.004, 0.904, 0.468, 14:51:38.313
89, 52566.59, 68985.73, -1754.59, 29059.97, 22693.97, 52693.86, 40738.38, 45535.84, 0.000, 0.000, 0.000, 14:51:38.313
90, 52565.31, 68983.09, -1748.60, 29061.38, 22706.49, 52705.61, 40761.96, 45555.31, 0.000, 0.000, 0.000, 14:51:38.313
91, 52590.34, 68963.87, -1750.30, 29053.78, 22705.91, 52700.79, 40771.32, 45565.35, 0.000, 0.000, 0.000, 14:51:38.313
92, 52611.69, 68976.52, -1740.53, 29061.76, 22712.75, 52705.10, 40771.84, 45574.87, 0.000, 0.000, 0.000, 14:51:38.314
93, 52518.53, 68970.40, -1739.52, 29061.67, 22704.86, 52698.17, 40755.36, 45557.08, 0.000, 0.000, 0.000, 14:51:38.314
94, 52478.68, 68960.20, -1761.81, 29046.78, 22680.45, 52684.18, 40729.28, 45529.41, 0.000, 0.000, 0.000, 14:51:38.314
95, 52514.48, 68949.63, -1761.47, 29045.22, 22685.19, 52683.29, 40740.68, 45537.12, 0.000, 0.000, 0.000, 14:51:38.314
96, 52519.87, 68932.58, -1752.94, 29052.48, 22695.71, 52686.26, 40752.44, 45543.69, 0.000, 0.000, 0.000, 14:51:38.314
97, 52522.80, 68941.52, -1740.75, 29067.77, 22704.99, 52700.36, 40760.10, 45554.44, 0.000, 0.000, 0.000, 14:51:38.315
98, 52553.73, 68973.52, -1752.31, 29060.26, 22689.68, 52694.84, 40748.26, 45545.30, 0.004, 0.910, 0.464, 14:51:38.315
99, 52562.52, 68997.69, -1761.70, 29062.25, 22680.56, 52699.78, 40737.37, 45535.42, 0.000, 0.000, 0.000, 14:51:38.315
100, 52542.71, 68954.98, -1754.54, 29064.51, 22691.91, 52709.43, 40754.83, 45552.92, 0.000, 0.000, 0.000, 14:51:38.316
101, 52526.69, 68936.06, -1751.48, 29061.58, 22691.45, 52693.63, 40755.72, 45554.08, 0.000, 0.000, 0.000, 14:51:38.318
102, 52506.44, 68938.61, -1743.59, 29065.43, 22693.70, 52691.60, 40753.18, 45552.05, 0.000, 0.000, 0.000, 14:51:38.318
103, 52534.24, 68952.58, -1750.36, 29060.80, 22689.70, 52686.66, 40745.64, 45536.34, 0.000, 0.000, 0.000, 14:51:38.318
104, 52564.51, 68974.91, -1761.83, 29061.58, 22676.98, 52685.61, 40725.84, 45521.27, 0.000, 0.000, 0.000, 14:51:38.319
105, 52567.12, 68973.86, -1755.22, 29065.85, 22690.95, 52693.03, 40737.75, 45549.90, 0.000, 0.000, 0.000, 14:51:38.319
106, 52567.79, 68960.74, -1750.05, 29066.01, 22697.14, 52688.69, 40754.34, 45549.01, 0.000, 0.000, 0.000, 14:51:38.319
107, 52540.66, 68973.21, -1749.45, 29063.84, 22691.80, 52682.14, 40745.38, 45544.14, -0.002, 0.914, 0.462, 14:51:38.319
108, 52512.96, 68987.16, -1753.07, 29061.76, 22689.81, 52687.04, 40733.24, 45534.19, 0.000, 0.000, 0.000, 14:51:38.320
109, 52517.61, 68964.02, -1756.78, 29066.52, 22684.14, 52697.36, 40727.18, 45538.70, 0.000, 0.000, 0.000, 14:51:38.322
110, 52515.58, 68950.93, -1748.67, 29070.37, 22692.38, 52701.95, 40747.47, 45561.04, 0.000, 0.000, 0.000, 14:51:38.322
111, 52521.97, 68942.37, -1750.95, 29062.86, 22689.54, 52693.61, 40750.96, 45546.39, 0.000, 0.000, 0.000, 14:51:38.323
112, 52543.79, 68955.66, -1748.04, 29061.98, 22687.76, 52695.82, 40751.54, 45546.46, 0.000, 0.000, 0.000, 14:51:38.323
113, 52555.95, 68966.64, -1747.28, 29065.49, 22688.88, 52703.73, 40747.16, 45555.13, 0.000, 0.000, 0.000, 14:51:38.324
114, 52562.38, 68978.58, -1761.99, 29063.32, 22677.28, 52694.59, 40732.23, 45536.22, 0.000, 0.000, 0.000, 14:51:38.324
115, 52520.85, 68961.90, -1757.92, 29067.84, 22685.90, 52698.80, 40745.24, 45553.88, 0.000, 0.000, 0.000, 14:51:38.324
116, 52519.18, 68954.34, -1753.58, 29069.76, 22686.51, 52697.28, 40748.64, 45553.86, 0.000, 0.000, 0.000, 14:51:38.324
117, 52538.18, 68968.74, -1750.63, 29071.39, 22679.51, 52690.12, 40736.54, 45535.71, 0.002, 0.908, 0.464, 14:51:38.325
118, 52564.59, 68979.91, -1753.65, 29072.27, 22674.75, 52693.92, 40725.28, 45528.07, 0.000, 0.000, 0.000, 14:51:38.325
119, 52579.10, 68981.44, -1759.35, 29077.49, 22669.61, 52698.84, 40720.90, 45529.72, 0.000, 0.000, 0.000, 14:51:38.325
120, 52541.95, 68982.60, -1755.15, 29078.26, 22679.35, 52695.64, 40727.94, 45540.47, 0.000, 0.000, 0.000, 14:51:38.326
121, 52542.42, 68979.85, -1746.54, 29075.24, 22684.58, 52692.52, 40737.19, 45542.21, 0.000, 0.000, 0.000, 14:51:38.326
122, 52554.89, 68974.11, -1741.54, 29069.56, 22685.21, 52687.29, 40735.14, 45526.86, 0.000, 0.000, 0.000, 14:51:38.326
123, 52594.26, 68980.95, -1745.60, 29065.04, 22685.37, 52685.25, 40725.05, 45515.79, 0.000, 0.000, 0.000, 14:51:38.326
124, 52574.68, 68978.17, -1758.68, 29062.61, 22672.33, 52683.02, 40705.86, 45499.79, 0.000, 0.000, 0.000, 14:51:38.327
125, 52504.22, 68956.67, -1750.23, 29069.20, 22683.24, 52686.10, 40723.63, 45528.11, 0.000, 0.000, 0.000, 14:51:38.327
126, 52498.64, 68940.20, -1746.43, 29065.63, 22689.97, 52684.38, 40730.60, 45541.63, 0.000, 0.000, 0.000, 14:51:38.327
127, 52500.69, 68948.78, -1741.11, 29068.26, 22690.42, 52686.55, 40731.05, 45539.82, 0.000, 0.906, 0.468, 14:51:38.327
128, 52535.72, 68971.80, -1741.96, 29070.92, 22689.39, 52693.30, 40725.05, 45537.27, 0.000, 0.000, 0.000, 14:51:38.327
129, 52573.85, 68984.59, -1749.85, 29073.96, 22682.48, 52695.75, 40714.02, 45527.89, 0.000, 0.000, 0.000, 14:51:38.328
130, 52572.55, 68979.02, -1748.93, 29075.80, 22686.97, 52693.66, 40722.73, 45536.40, 0.000, 0.000, 0.000, 14:51:38.328
131, 52547.21, 68955.87, -1743.03, 29077.61, 22696.68, 52689.70, 40737.19, 45537.21, 0.000, 0.000, 0.000, 14:51:38.328
132, 52551.43, 68971.18, -1734.96, 29080.60, 22698.29, 52692.18, 40736.57, 45541.79, 0.000, 0.000, 0.000, 14:51:38.329
133, 52550.18, 68985.51, -1739.99, 29077.74, 22693.12, 52699.73, 40728.81, 45542.97, 0.000, 0.000, 0.000, 14:51:38.329
134, 52548.79, 68990.96, -1751.89, 29079.93, 22678.39, 52712.03, 40722.02, 45541.66, 0.000, 0.000, 0.000, 14:51:38.329
135, 52570.05, 68980.48, -1750.52, 29081.76, 22686.08, 52703.20, 40733.80, 45559.49, 0.000, 0.000, 0.000, 14:51:38.329
136, 52555.79, 68953.43, -1747.19, 29079.42, 22683.31, 52697.03, 40745.75, 45571.47, 0.000, 0.000, 0.000, 14:51:38.330
137, 52531.94, 68955.64, -1740.13, 29082.77, 22681.50, 52697.92, 40743.79, 45564.66, 0.000, 0.908, 0.472, 14:51:38.330
138, 52560.10, 68964.02, -1748.38, 29075.57, 22675.35, 52693.57, 40727.92, 45548.45, 0.000, 0.000, 0.000, 14:51:38.330
139, 52588.31, 69001.51, -1758.34, 29075.71, 22665.61, 52698.46, 40716.34, 45538.97, 0.000, 0.000, 0.000, 14:51:38.330
140, 52538.76, 68994.06, -1751.39, 29083.82, 22678.15, 52705.93, 40728.74, 45559.47, 0.000, 0.000, 0.000, 14:51:38.331
141, 52548.03, 68990.27, -1749.40, 29076.58, 22679.96, 52697.32, 40739.94, 45566.76, 0.000, 0.000, 0.000, 14:51:38.331
142, 52557.82, 68970.30, -1743.77, 29074.72, 22679.51, 52690.30, 40744.86, 45555.85, 0.000, 0.000, 0.000, 14:51:38.332
143, 52553.96, 68967.29, -1743.84, 29074.84, 22677.16, 52690.82, 40739.14, 45546.44, 0.000, 0.000, 0.000, 14:51:38.333
144, 52593.12, 68981.98, -1749.61, 29078.66, 22671.82, 52695.24, 40726.13, 45539.58, 0.000, 0.000, 0.000, 14:51:38.334
145, 52549.26, 68972.72, -1750.05, 29074.08, 22683.78, 52689.95, 40735.54, 45547.40, 0.000, 0.000, 0.000, 14:51:38.334
146, 52517.05, 68958.15, -1752.40, 29068.11, 22683.85, 52683.91, 40742.96, 45551.07, 0.000, 0.000, 0.000, 14:51:38.335
147, 52542.04, 68948.06, -1748.11, 29075.69, 22678.79, 52689.65, 40739.36, 45557.88, 0.002, 0.904, 0.472, 14:51:38.335
148, 52532.68, 68952.96, -1742.90, 29086.57, 22687.76, 52700.29, 40740.59, 45557.23, 0.000, 0.000, 0.000, 14:51:38.335
149, 52538.29, 68964.27, -1751.84, 29086.23, 22678.53, 52702.24, 40734.64, 45544.34, 0.000, 0.000, 0.000, 14:51:38.336
150, 52535.92, 68982.40, -1749.05, 29086.19, 22687.71, 52707.94, 40747.96, 45564.41, 0.000, 0.000, 0.000, 14:51:38.338
151, 52555.54, 68965.66, -1746.81, 29083.31, 22691.51, 52703.20, 40747.14, 45554.57, 0.000, 0.000, 0.000, 14:51:38.339
152, 52570.77, 68954.68, -1739.26, 29090.01, 22692.07, 52711.36, 40749.08, 45570.15, 0.000, 0.000, 0.000, 14:51:38.340
153, 52531.16, 68965.61, -1743.82, 29091.04, 22680.63, 52708.27, 40741.30, 45566.33, 0.000, 0.000, 0.000, 14:51:38.341
154, 52518.39, 68968.12, -1752.06, 29095.06, 22677.79, 52708.61, 40730.60, 45543.76, 0.000, 0.000, 0.000, 14:51:38.341
155, 52527.89, 68966.71, -1747.26, 29096.96, 22690.39, 52712.34, 40747.45, 45556.86, 0.000, 0.000, 0.000, 14:51:38.342
156, 52508.71, 68918.09, -1745.81, 29089.21, 22684.70, 52707.09, 40748.91, 45574.29, 0.000, 0.000, 0.000, 14:51:38.342
157, 52538.69, 68938.55, -1734.45, 29091.33, 22683.04, 52710.30, 40748.37, 45578.74, -0.002, 0.898, 0.464, 14:51:38.342
158, 52599.26, 68966.57, -1734.43, 29088.76, 22683.98, 52709.79, 40742.63, 45573.30, 0.000, 0.000, 0.000, 14:51:38.342
159, 52614.84, 68990.89, -1747.97, 29086.93, 22672.51, 52713.32, 40725.44, 45560.05, 0.000, 0.000, 0.000, 14:51:38.343
160, 52578.18, 68995.61, -1742.88, 29090.44, 22687.00, 52714.38, 40749.44, 45566.85, 0.000, 0.000, 0.000, 14:51:38.343
161, 52541.68, 68983.13, -1743.53, 29085.83, 22688.54, 52706.24, 40754.56, 45576.08, 0.000, 0.000, 0.000, 14:51:38.344
162, 52526.80, 68965.68, -1734.41, 29091.96, 22689.48, 52706.48, 40749.62, 45570.27, 0.000, 0.000, 0.000, 14:51:38.344
163, 52527.96, 68963.16, -1737.47, 29088.69, 22681.72, 52700.02, 40734.80, 45554.66, 0.000, 0.000, 0.000, 14:51:38.344
164, 52515.62, 68955.98, -1751.35, 29086.59, 22666.75, 52694.41, 40715.69, 45540.56, 0.000, 0.000, 0.000, 14:51:38.345
165, 52517.77, 68950.66, -1749.78, 29087.69, 22677.10, 52701.07, 40729.75, 45558.48, 0.000, 0.000, 0.000, 14:51:38.345
166, 52533.59, 68939.23, -1743.01, 29088.87, 22681.79, 52702.55, 40741.28, 45568.90, 0.000, 0.000, 0.000, 14:51:38.345
167, 52535.49, 68959.24, -1742.16, 29089.45, 22679.15, 52701.19, 40743.83, 45564.84, 0.000, 0.900, 0.474, 14:51:38.346
168, 52538.91, 68976.45, -1748.96, 29089.61, 22675.55, 52707.56, 40735.25, 45553.84, 0.000, 0.000, 0.000, 14:51:38.346
169, 52548.30, 68975.49, -1761.27, 29089.83, 22669.43, 52712.50, 40720.21, 45542.15, 0.000, 0.000, 0.000, 14:51:38.346
170, 52541.44, 68978.24, -1755.62, 29091.38, 22680.09, 52720.32, 40735.05, 45556.63, 0.000, 0.000, 0.000, 14:51:38.347
171, 52580.04, 68952.18, -1753.61, 29084.83, 22683.76, 52704.18, 40742.82, 45559.25, 0.000, 0.000, 0.000, 14:51:38.347
172, 52581.72, 68952.91, -1744.55, 29088.02, 22686.04, 52706.66, 40741.66, 45551.02, 0.000, 0.000, 0.000, 14:51:38.348
173, 52528.79, 68972.23, -1749.16, 29082.84, 22683.98, 52701.23, 40728.14, 45528.20, 0.000, 0.000, 0.000, 14:51:38.348
174, 52526.66, 68975.72, -1766.75, 29073.88, 22662.01, 52694.59, 40698.97, 45510.30, 0.000, 0.000, 0.000, 14:51:38.348
175, 52538.20, 68983.47, -1765.39, 29075.73, 22669.16, 52699.02, 40711.98, 45547.36, 0.000, 0.000, 0.000, 14:51:38.349
176, 52505.57, 68956.11, -1758.77, 29076.58, 22678.84, 52689.65, 40726.73, 45543.93, 0.000, 0.000, 0.000, 14:51:38.349
177, 52493.92, 68956.80, -1748.29, 29081.79, 22684.54, 52689.70, 40729.97, 45535.89, 0.006, 0.900, 0.464, 14:51:38.350
178, 52512.92, 68981.23, -1749.90, 29078.59, 22676.98, 52696.63, 40716.41, 45545.84, 0.000, 0.000, 0.000, 14:51:38.350
179, 52576.75, 69011.16, -1761.00, 29078.43, 22665.41, 52699.11, 40701.07, 45540.70, 0.000, 0.000, 0.000, 14:51:38.350
180, 52564.11, 68990.04, -1756.22, 29082.37, 22675.58, 52699.78, 40724.05, 45555.49, 0.000, 0.000, 0.000, 14:51:38.350
181, 52545.33, 68953.97, -1752.85, 29078.93, 22677.95, 52694.70, 40733.28, 45556.96, 0.000, 0.000, 0.000, 14:51:38.350
182, 52529.59, 68950.52, -1743.82, 29083.22, 22676.98, 52701.34, 40733.32, 45557.75, 0.000, 0.000, 0.000, 14:51:38.351
183, 52520.74, 68962.64, -1749.16, 29079.10, 22669.21, 52698.06, 40719.49, 45549.57, 0.000, 0.000, 0.000, 14:51:38.351
184, 52540.30, 68974.66, -1760.29, 29079.69, 22661.56, 52698.01, 40700.04, 45534.10, 0.000, 0.000, 0.000, 14:51:38.351
185, 52547.45, 68976.74, -1760.00, 29080.27, 22671.53, 52701.63, 40717.23, 45547.09, 0.000, 0.000, 0.000, 14:51:38.351
186, 52517.39, 68981.93, -1753.02, 29083.22, 22683.24, 52704.70, 40733.95, 45561.53, 0.008, 0.896, 0.468, 14:51:38.352
187, 52516.76, 68978.11, -1744.82, 29090.97, 22684.56, 52707.27, 40731.54, 45559.49, 0.000, 0.000, 0.000, 14:51:38.352
188, 52537.48, 68983.23, -1749.47, 29089.25, 22678.82, 52703.42, 40719.96, 45540.87, 0.000, 0.000, 0.000, 14:51:38.353
189, 52572.48, 69003.70, -1762.03, 29085.18, 22664.49, 52698.26, 40708.25, 45524.33, 0.000, 0.000, 0.000, 14:51:38.355
190, 52600.83, 69007.12, -1758.23, 29088.63, 22672.22, 52704.29, 40721.70, 45548.92, 0.000, 0.000, 0.000, 14:51:38.355
191, 52538.33, 68982.98, -1745.36, 29096.25, 22686.15, 52715.61, 40743.77, 45571.99, 0.000, 0.000, 0.000, 14:51:38.356
192, 52507.55, 68980.23, -1734.36, 29099.58, 22691.15, 52716.90, 40742.20, 45567.89, 0.000, 0.000, 0.000, 14:51:38.356
193, 52521.90, 68975.88, -1738.25, 29093.21, 22685.68, 52707.11, 40727.52, 45546.35, 0.000, 0.000, 0.000, 14:51:38.356
194, 52550.25, 68962.13, -1750.16, 29090.53, 22673.77, 52703.67, 40714.57, 45528.67, 0.000, 0.000, 0.000, 14:51:38.792
195, 52586.19, 68956.31, -1745.85, 29093.05, 22686.33, 52709.43, 40731.49, 45548.63, 0.000, 0.000, 0.000, 14:51:38.792
196, 52553.40, 68943.30, -1739.77, 29093.01, 22693.70, 52709.14, 40739.20, 45561.86, -0.002, 0.910, 0.464, 14:51:38.792
197, 52540.25, 68949.05, -1724.64, 29103.89, 22699.45, 52717.21, 40741.73, 45568.46, 0.000, 0.000, 0.000, 14:51:38.793
198, 52540.63, 68958.02, -1731.99, 29094.04, 22692.96, 52703.51, 40721.64, 45547.45, 0.000, 0.000, 0.000, 14:51:38.793
199, 52521.90, 68972.32, -1745.81, 29090.48, 22686.48, 52700.83, 40711.89, 45528.45, 0.000, 0.000, 0.000, 14:51:38.793
200, 52500.29, 68966.84, -1741.89, 29096.20, 22700.12, 52707.27, 40736.48, 45540.18, 0.000, 0.000, 0.000, 14:51:38.794
201, 52489.34, 68955.80, -1737.31, 29095.89, 22705.37, 52706.89, 40750.34, 45554.02, 0.000, 0.000, 0.000, 14:51:38.794
202, 52505.72, 68960.07, -1729.53, 29096.00, 22705.08, 52707.11, 40750.27, 45566.45, 0.000, 0.000, 0.000, 14:51:38.794
203, 52518.04, 68967.06, -1734.16, 29092.16, 22701.86, 52715.11, 40742.38, 45563.79, 0.000, 0.000, 0.000, 14:51:38.794
204, 52535.80, 68970.91, -1745.00, 29092.00, 22688.99, 52721.13, 40729.17, 45554.48, 0.000, 0.000, 0.000, 14:51:38.795
205, 52518.89, 68950.77, -1749.23, 29089.30, 22692.79, 52718.22, 40736.37, 45558.62, 0.000, 0.000, 0.000, 14:51:38.795
206, 52519.24, 68937.43, -1751.44, 29081.61, 22692.63, 52708.07, 40738.58, 45551.73, 0.002, 0.912, 0.468, 14:51:38.795
207, 52521.05, 68928.27, -1754.41, 29076.51, 22685.28, 52705.70, 40732.45, 45539.33, 0.000, 0.000, 0.000, 14:51:38.795
208, 52493.50, 68931.34, -1760.89, 29074.50, 22677.54, 52707.09, 40720.68, 45551.69, 0.000, 0.000, 0.000, 14:51:38.796
209, 52478.61, 68940.63, -1768.76, 29077.74, 22668.33, 52708.90, 40704.52, 45552.38, 0.000, 0.000, 0.000, 14:51:38.796
210, 52479.01, 68925.78, -1765.72, 29077.61, 22676.51, 52712.36, 40713.77, 45553.37, 0.000, 0.000, 0.000, 14:51:38.796
211, 52421.39, 68871.00, -1769.65, 29065.16, 22682.42, 52697.39, 40740.77, 45544.72, 0.000, 0.000, 0.000, 14:51:38.796
212, 52406.82, 68864.23, -1758.86, 29075.46, 22686.97, 52710.39, 40755.34, 45560.14, 0.000, 0.000, 0.000, 14:51:38.797
213, 52423.54, 68837.85, -1764.42, 29069.43, 22684.40, 52706.82, 40744.19, 45562.06, 0.000, 0.000, 0.000, 14:51:38.797
214, 52448.34, 68829.71, -1778.46, 29068.06, 22673.83, 52708.68, 40728.16, 45552.14, 0.000, 0.000, 0.000, 14:51:38.797
215, 52385.98, 68799.83, -1774.88, 29068.09, 22685.70, 52714.82, 40742.36, 45568.25, 0.000, 0.000, 0.000, 14:51:38.798
216, 52311.04, 68771.80, -1773.52, 29055.08, 22688.90, 52704.32, 40753.24, 45573.89, 0.004, 0.904, 0.470, 14:51:38.798
217, 52290.70, 68768.96, -1771.29, 29049.35, 22684.11, 52700.63, 40743.90, 45563.47, 0.000, 0.000, 0.000, 14:51:38.799
218, 52290.77, 68767.55, -1780.85, 29044.84, 22678.32, 52694.13, 40724.81, 45544.23, 0.000, 0.000, 0.000, 14:51:38.799
219, 52272.93, 68767.11, -1791.74, 29046.54, 22672.07, 52694.77, 40711.58, 45531.95, 0.000, 0.000, 0.000, 14:51:38.800
220, 52249.46, 68738.90, -1788.12, 29048.19, 22684.94, 52704.54, 40729.88, 45555.00, 0.000, 0.000, 0.000, 14:51:38.800
221, 52227.66, 68712.26, -1789.84, 29039.30, 22686.24, 52699.58, 40734.18, 45567.63, 0.000, 0.000, 0.000, 14:51:38.800
222, 52242.13, 68712.91, -1779.36, 29045.06, 22690.17, 52704.92, 40734.40, 45567.79, 0.000, 0.000, 0.000, 14:51:38.801
223, 52257.84, 68719.66, -1786.55, 29037.46, 22688.23, 52695.64, 40728.09, 45549.21, 0.000, 0.000, 0.000, 14:51:38.801
224, 52252.90, 68721.15, -1804.39, 29030.56, 22671.20, 52697.45, 40710.30, 45528.91, 0.000, 0.000, 0.000, 14:51:38.801
225, 52233.79, 68713.48, -1803.36, 29034.31, 22685.52, 52704.54, 40728.70, 45551.76, 0.000, 0.000, 0.000, 14:51:38.802
226, 52247.18, 68663.30, -1795.54, 29039.77, 22695.98, 52703.94, 40748.59, 45565.57, 0.000, 0.898, 0.470, 14:51:38.805
227, 52201.11, 68665.48, -1789.08, 29045.67, 22694.06, 52707.11, 40748.48, 45567.49, 0.000, 0.000, 0.000, 14:51:38.805
228, 52190.18, 68665.07, -1797.21, 29036.52, 22682.64, 52698.06, 40725.93, 45542.17, 0.000, 0.000, 0.000, 14:51:38.806
229, 52215.68, 68669.05, -1811.25, 29033.22, 22667.06, 52698.71, 40707.46, 45505.87, 0.000, 0.000, 0.000, 14:51:38.806
230, 52217.32, 68664.29, -1809.08, 29040.35, 22677.77, 52710.17, 40731.71, 45535.42, 0.000, 0.000, 0.000, 14:51:38.807
231, 52225.32, 68651.15, -1809.98, 29036.66, 22681.05, 52699.89, 40743.27, 45555.56, 0.000, 0.000, 0.000, 14:51:38.807
232, 52204.64, 68650.66, -1803.20, 29039.25, 22680.16, 52699.91, 40738.91, 45557.44, 0.000, 0.000, 0.000, 14:51:38.807
233, 52209.27, 68670.55, -1801.13, 29040.57, 22678.50, 52704.65, 40729.46, 45561.91, 0.000, 0.000, 0.000, 14:51:38.808
234, 52274.70, 68679.42, -1811.54, 29037.75, 22667.87, 52708.38, 40721.95, 45553.10, 0.000, 0.000, 0.000, 14:51:38.808
235, 52303.84, 68677.21, -1807.12, 29043.25, 22680.83, 52715.56, 40744.97, 45575.23, 0.000, 0.000, 0.000, 14:51:38.808
236, 52179.32, 68667.95, -1799.18, 29048.68, 22692.74, 52715.40, 40758.85, 45582.80, 0.002, 0.902, 0.476, 14:51:38.808
237, 52165.91, 68667.44, -1786.78, 29056.24, 22694.87, 52713.52, 40760.77, 45573.60, 0.000, 0.000, 0.000, 14:51:38.809
238, 52187.99, 68677.38, -1783.56, 29057.42, 22691.74, 52711.36, 40745.78, 45560.54, 0.000, 0.000, 0.000, 14:51:38.809
239, 52175.81, 68669.67, -1789.06, 29057.85, 22678.77, 52708.86, 40725.79, 45549.14, 0.000, 0.000, 0.000, 14:51:38.809
240, 52195.61, 68675.40, -1787.60, 29056.69, 22682.97, 52711.78, 40738.29, 45564.50, 0.000, 0.000, 0.000, 14:51:38.809
241, 52193.20, 68653.18, -1787.27, 29049.96, 22691.02, 52709.17, 40750.05, 45570.71, 0.000, 0.000, 0.000, 14:51:38.809
